Elapsed Time (s),Position (mm),Force (N)
-0.015,75.4094,-0.080393
0.016,75.4094,-0.080393
0.047,75.4094,-0.080393
0.083,75.4094,-0.080393
0.125,75.4094,-0.075349
0.156,75.4094,-0.075349
0.188,75.4094,-0.075349
0.219,75.4094,-0.075349
0.252,75.4094,-0.075349
0.281,75.4094,-0.075349
0.312,75.4094,-0.075349
0.343,75.4094,-0.075349
0.374,75.4094,-0.069204
0.404,75.4094,-0.069204
0.435,75.4094,-0.069204
0.465,75.4094,-0.069204
0.497,75.4094,-0.069204
0.528,75.4094,-0.069204
0.560,75.4094,-0.069204
0.590,75.4094,-0.069204
0.622,75.4094,-0.069204
0.652,75.4094,-0.065402
0.683,75.4094,-0.065402
0.715,75.4094,-0.065402
0.747,75.4094,-0.065402
0.778,75.4094,-0.065402
0.809,75.4094,-0.065402
0.840,75.4094,-0.065402
0.871,75.4094,-0.065402
0.902,75.4094,-0.062711
0.932,75.4094,-0.062711
0.963,75.4094,-0.062711
0.995,75.4094,-0.062711
1.026,75.4094,-0.062711
1.057,75.4094,-0.062711
1.087,75.4094,-0.062711
1.118,75.4094,-0.060659
1.149,75.4094,-0.060659
1.180,75.4094,-0.060659
1.211,75.4094,-0.060659
1.243,75.4094,-0.060659
1.274,75.4094,-0.060659
1.305,75.4094,-0.060659
1.337,75.4094,-0.060659
1.368,75.4094,-0.059003
1.399,75.4094,-0.059003
1.430,75.4094,-0.059003
1.460,75.4094,-0.059003
1.491,75.4094,-0.059003
1.522,75.4094,-0.059003
1.553,75.4094,-0.059003
1.584,75.4094,-0.059003
1.614,75.4094,-0.059003
1.646,75.4094,-0.057639
1.677,75.4094,-0.057639
1.708,75.4094,-0.057639
1.738,75.4094,-0.057639
1.770,75.4094,-0.057639
1.802,75.4094,-0.057639
1.834,75.4094,-0.057639
1.865,75.4094,-0.056406
1.897,75.4094,-0.056406
1.929,75.4094,-0.056406
1.960,75.4094,-0.056406
1.990,75.4094,-0.056406
2.023,75.4094,-0.056406
2.052,75.4094,-0.056406
2.083,75.4094,-0.056406
2.114,75.4094,-0.056406
2.145,75.4094,-0.055333
2.176,75.4094,-0.055333
2.207,75.4094,-0.055333
2.238,75.4094,-0.055333
2.268,75.4094,-0.055333
2.299,75.4094,-0.055333
2.330,75.4094,-0.055333
2.361,75.4094,-0.055333
2.392,75.4094,-0.054401
2.423,75.4094,-0.054401
2.457,75.4094,-0.054401
2.485,75.4094,-0.054401
2.515,75.4094,-0.054401
2.547,75.4094,-0.054401
2.578,75.4094,-0.054401
2.610,75.4094,-0.054401
2.640,75.4094,-0.053583
2.671,75.4094,-0.053583
2.702,75.4094,-0.053583
2.733,75.4094,-0.053583
2.764,75.4094,-0.053583
2.795,75.4094,-0.053583
2.826,75.4094,-0.053583
2.857,75.4094,-0.052821
2.887,75.4094,-0.052821
2.918,75.4094,-0.052821
2.948,75.4094,-0.052821
2.983,75.4094,-0.052821
3.011,75.4094,-0.052821
3.041,75.4094,-0.052821
3.071,75.4094,-0.052821
3.102,75.4094,-0.052821
3.133,75.4094,-0.052086
3.164,75.4094,-0.052086
3.194,75.4094,-0.052086
3.225,75.4094,-0.052086
3.256,75.4094,-0.052086
3.289,75.4094,-0.052086
3.318,75.4094,-0.052086
3.349,75.4094,-0.052086
3.380,75.4094,-0.051418
3.411,75.4094,-0.051418
3.443,75.4094,-0.051418
3.473,75.4094,-0.051418
3.504,75.4094,-0.051418
3.536,75.4094,-0.051418
3.566,75.4094,-0.051418
3.597,75.4094,-0.051418
3.629,75.4094,-0.051418
3.660,75.4094,-0.050750
3.691,75.4094,-0.050750
3.724,75.4094,-0.050750
3.753,75.4094,-0.050750
3.785,75.4094,-0.050750
3.814,75.4094,-0.050750
3.846,75.4094,-0.050750
3.878,75.4094,-0.050157
3.909,75.4094,-0.050157
3.940,75.4094,-0.050157
3.972,75.4094,-0.050157
4.003,75.4094,-0.050157
4.034,75.4094,-0.050157
4.065,75.4094,-0.050157
4.095,75.4094,-0.050157
4.126,75.4089,-0.050157
4.157,75.4077,-0.049659
4.188,75.4058,-0.049659
4.219,75.4031,-0.049659
4.251,75.3997,-0.049659
4.282,75.3955,-0.049659
4.314,75.3905,-0.049659
4.345,75.3849,-0.049659
4.378,75.3783,-0.049659
4.407,75.3714,-0.047984
4.439,75.3636,-0.047984
4.470,75.3549,-0.047984
4.501,75.3459,-0.047984
4.532,75.3359,-0.047984
4.563,75.3249,-0.047984
4.594,75.3136,-0.047984
4.624,75.3018,-0.037209
4.655,75.2892,-0.037209
4.685,75.2760,-0.037209
4.716,75.2613,-0.037209
4.746,75.2466,-0.037209
4.777,75.2309,-0.037209
4.808,75.2148,-0.037209
4.843,75.1950,-0.037209
4.870,75.1797,-0.018397
4.901,75.1609,-0.018397
4.932,75.1417,-0.018397
4.966,75.1194,-0.018397
4.994,75.1009,-0.018397
5.025,75.0788,-0.018397
5.056,75.0569,-0.018397
5.082,75.0377,-0.018397
5.118,75.0097,-0.000028
5.149,74.9857,-0.000028
5.180,74.9601,-0.000028
5.211,74.9342,-0.000028
5.242,74.9073,-0.000028
5.274,74.8798,-0.000028
5.304,74.8524,-0.000028
5.335,74.8240,-0.000028
5.366,74.7930,-0.000028
5.398,74.7626,0.015555
5.430,74.7309,0.015555
5.460,74.7007,0.015555
5.491,74.6677,0.015555
5.523,74.6332,0.015555
5.554,74.5997,0.015555
5.585,74.5649,0.015555
5.616,74.5293,0.025879
5.647,74.4922,0.025879
5.678,74.4561,0.025879
5.709,74.4185,0.025879
5.739,74.3812,0.025879
5.771,74.3421,0.025879
5.802,74.3008,0.025879
5.832,74.2619,0.025879
5.863,74.2205,0.032503
5.894,74.1783,0.032503
5.925,74.1353,0.032503
5.957,74.0921,0.032503
5.988,74.0466,0.032503
6.019,74.0021,0.032503
6.051,73.9542,0.032503
6.081,73.9113,0.032503
6.118,73.8532,0.039138
6.144,73.8140,0.039138
6.175,73.7654,0.039138
6.205,73.7172,0.039138
6.238,73.6640,0.039138
6.268,73.6155,0.039138
6.298,73.5650,0.039138
6.330,73.5115,0.039138
6.362,73.4568,0.045019
6.393,73.4034,0.045019
6.424,73.3501,0.045019
6.455,73.2946,0.045019
6.486,73.2378,0.045019
6.519,73.1790,0.045019
6.549,73.1229,0.045019
6.579,73.0665,0.045019
6.610,73.0074,0.048172
6.641,72.9480,0.048172
6.671,72.8897,0.048172
6.702,72.8294,0.048172
6.733,72.7701,0.048172
6.764,72.7121,0.048172
6.795,72.6524,0.048172
6.827,72.5949,0.048172
6.857,72.5371,0.048172
6.889,72.4815,0.030847
6.919,72.4287,0.030847
6.950,72.3725,0.030847
6.981,72.3192,0.030847
7.013,72.2646,0.030847
7.044,72.2122,0.030847
7.075,72.1606,0.030847
7.106,72.1102,0.030847
7.136,72.0600,0.030847
7.168,72.0105,0.010549
7.199,71.9617,0.010549
7.230,71.9142,0.010549
7.261,71.8667,0.010549
7.292,71.8209,0.010549
7.324,71.7731,0.010549
7.354,71.7295,0.010549
7.381,71.6906,0.010549
7.416,71.6420,0.008196
7.448,71.5981,0.008196
7.479,71.5559,0.008196
7.511,71.5130,0.008196
7.541,71.4730,0.008196
7.572,71.4328,0.008196
7.603,71.3942,0.008196
7.634,71.3558,0.008196
7.665,71.3183,0.007773
7.696,71.2811,0.007773
7.727,71.2458,0.007773
7.758,71.2093,0.007773
7.790,71.1737,0.007773
7.821,71.1395,0.007773
7.851,71.1071,0.007773
7.883,71.0729,0.007773
7.915,71.0412,0.007660
7.946,71.0096,0.007660
7.978,70.9787,0.007660
8.008,70.9492,0.007660
8.038,70.9213,0.007660
8.070,70.8928,0.007660
8.101,70.8648,0.007660
8.131,70.8392,0.007557
8.162,70.8125,0.007557
8.193,70.7882,0.007557
8.223,70.7637,0.007557
8.254,70.7405,0.007557
8.287,70.7156,0.007557
8.316,70.6946,0.007557
8.348,70.6719,0.007557
8.377,70.6523,0.007425
8.409,70.6317,0.007425
8.438,70.6127,0.007425
8.468,70.5946,0.007425
8.501,70.5759,0.007425
8.532,70.5582,0.007425
8.561,70.5425,0.007425
8.592,70.5265,0.007425
8.622,70.5118,0.007378
8.654,70.4968,0.007378
8.685,70.4831,0.007378
8.716,70.4700,0.007378
8.747,70.4580,0.007378
8.779,70.4457,0.007378
8.809,70.4351,0.007378
8.840,70.4248,0.007378
8.872,70.4155,0.007331
8.903,70.4066,0.007331
8.933,70.3988,0.007331
8.964,70.3917,0.007331
8.994,70.3855,0.007331
9.027,70.3795,0.007331
9.058,70.3742,0.007331
9.092,70.3697,0.007331
9.122,70.3662,0.007331
9.154,70.3635,0.007199
9.185,70.3613,0.007199
9.216,70.3600,0.007199
9.247,70.3594,0.007199
9.280,70.3594,0.007199
9.309,70.3594,0.007199
9.339,70.3594,0.007199
9.370,70.3594,0.007199
9.401,70.3595,0.007161
9.431,70.3604,0.007161
9.461,70.3618,0.007161
9.493,70.3641,0.007161
9.524,70.3672,0.007161
9.554,70.3707,0.007161
9.586,70.3752,0.007161
9.616,70.3802,0.007095
9.647,70.3860,0.007095
9.679,70.3930,0.007095
9.709,70.3999,0.007095
9.740,70.4082,0.007095
9.771,70.4169,0.007095
9.802,70.4265,0.007095
9.833,70.4366,0.007095
9.864,70.4475,0.007095
9.895,70.4592,0.006945
9.926,70.4717,0.006945
9.958,70.4851,0.006945
9.990,70.4995,0.006945
10.020,70.5139,0.006945
10.052,70.5296,0.006945
10.082,70.5458,0.006945
10.114,70.5630,0.006945
10.145,70.5800,0.006954
10.177,70.5990,0.006954
10.208,70.6180,0.006954
10.239,70.6382,0.006954
10.271,70.6589,0.006954
10.301,70.6793,0.006954
10.331,70.7007,0.006954
10.361,70.7231,0.006954
10.392,70.7464,0.006935
10.428,70.7740,0.006935
10.454,70.7953,0.006935
10.485,70.8206,0.006935
10.516,70.8464,0.006935
10.546,70.8724,0.006935
10.577,70.9007,0.006935
10.609,70.9300,0.006710
10.640,70.9590,0.006710
10.672,70.9900,0.006710
10.702,71.0193,0.006710
10.734,71.0518,0.006710
10.764,71.0829,0.006710
10.796,71.1167,0.006710
10.826,71.1495,0.006710
10.858,71.1849,0.006503
10.888,71.2201,0.006503
10.920,71.2561,0.006503
10.951,71.2924,0.006503
10.981,71.3290,0.006503
11.013,71.3678,0.006503
11.044,71.4061,0.006503
11.075,71.4458,0.006503
11.106,71.4855,0.006352
11.138,71.5280,0.006352
11.169,71.5696,0.006352
11.200,71.6127,0.006352
11.231,71.6542,0.006352
11.263,71.6988,0.006352
11.294,71.7442,0.006352
11.327,71.7934,0.006352
11.357,71.8364,0.006352
11.387,71.8818,0.006060
11.418,71.9290,0.006060
11.448,71.9771,0.006060
11.479,72.0257,0.006060
11.509,72.0729,0.006060
11.540,72.1242,0.006060
11.571,72.1751,0.006060
11.602,72.2265,0.005656
11.634,72.2799,0.005656
11.666,72.3351,0.005656
11.696,72.3875,0.005656
11.728,72.4435,0.005656
11.759,72.5000,0.005656
11.790,72.5552,0.005656
11.822,72.6132,0.005656
11.852,72.6695,0.005100
11.883,72.7288,0.005100
11.914,72.7875,0.005100
11.946,72.8479,0.005100
11.976,72.9069,0.005100
12.006,72.9652,0.005100
12.037,73.0239,0.005100
12.068,73.0816,0.005100
12.100,73.1398,0.005100
12.131,73.1980,0.004489
12.162,73.2541,0.004489
12.193,73.3080,0.004489
12.224,73.3631,0.004489
12.256,73.4170,0.004489
12.286,73.4696,0.004489
12.319,73.5228,0.004489
12.349,73.5738,0.004489
12.380,73.6233,0.003623
12.411,73.6745,0.003623
12.442,73.7228,0.003623
12.473,73.7724,0.003623
12.503,73.8175,0.003623
12.534,73.8648,0.003623
12.565,73.9103,0.003623
12.596,73.9564,0.003623
12.627,74.0026,0.002202
12.659,74.0473,0.002202
12.690,74.0900,0.002202
12.720,74.1313,0.002202
12.751,74.1727,0.002202
12.783,74.2155,0.002202
12.813,74.2542,0.002202
12.843,74.2944,0.002202
12.875,74.3328,-0.000546
12.905,74.3703,-0.000546
12.937,74.4089,-0.000546
12.967,74.4462,-0.000546
12.998,74.4819,-0.000546
13.031,74.5180,-0.000546
13.061,74.5528,-0.000546
13.094,74.5888,-0.000546
13.124,74.6209,-0.006380
13.155,74.6528,-0.006380
13.186,74.6841,-0.006380
13.216,74.7148,-0.006380
13.247,74.7448,-0.006380
13.278,74.7744,-0.006380
13.309,74.8029,-0.006380
13.340,74.8318,-0.006380
13.372,74.8593,-0.017362
13.404,74.8868,-0.017362
13.434,74.9119,-0.017362
13.465,74.9372,-0.017362
13.496,74.9613,-0.017362
13.527,74.9849,-0.017362
13.558,75.0080,-0.017362
13.589,75.0308,-0.017362
13.621,75.0525,-0.033539
13.652,75.0735,-0.033539
13.683,75.0936,-0.033539
13.714,75.1126,-0.033539
13.745,75.1312,-0.033539
13.777,75.1495,-0.033539
13.807,75.1661,-0.033539
13.838,75.1826,-0.033539
13.869,75.1983,-0.051795
13.900,75.2133,-0.051795
13.930,75.2272,-0.051795
13.962,75.2408,-0.051795
13.993,75.2535,-0.051795
14.024,75.2656,-0.051795
14.054,75.2769,-0.051795
14.086,75.2876,-0.051795
14.115,75.2970,-0.068047
14.148,75.3067,-0.068047
14.177,75.3147,-0.068047
14.208,75.3224,-0.068047
14.239,75.3291,-0.068047
14.270,75.3354,-0.068047
14.301,75.3409,-0.068047
14.331,75.3457,-0.068047
14.362,75.3498,-0.078737
14.393,75.3532,-0.078737
14.424,75.3559,-0.078737
14.455,75.3578,-0.078737
14.486,75.3589,-0.078737
14.517,75.3594,-0.078737
14.548,75.3594,-0.078737
14.580,75.3594,-0.078737
14.610,75.3594,-0.080515
14.642,75.3594,-0.080515
14.672,75.3594,-0.080515
14.703,75.3594,-0.080515
14.734,75.3594,-0.080515
14.766,75.3594,-0.080515
14.796,75.3594,-0.080515
14.827,75.3594,-0.080515
14.858,75.3594,-0.074878
14.889,75.3594,-0.074878
14.920,75.3594,-0.074878
14.951,75.3594,-0.074878
14.983,75.3594,-0.074878
15.014,75.3594,-0.074878
15.044,75.3594,-0.074878
15.076,75.3594,-0.074878
15.108,75.3594,-0.074878
15.139,75.3594,-0.068884
15.170,75.3594,-0.068884
15.201,75.3594,-0.068884
15.231,75.3594,-0.068884
15.263,75.3594,-0.068884
15.294,75.3594,-0.068884
15.325,75.3594,-0.068884
15.356,75.3594,-0.068884
15.388,75.3594,-0.068884
15.418,75.3594,-0.065365
15.450,75.3594,-0.065365
15.480,75.3594,-0.065365
15.511,75.3594,-0.065365
15.542,75.3594,-0.065365
15.574,75.3594,-0.065365
15.604,75.3594,-0.065365
15.637,75.3594,-0.062861
15.668,75.3594,-0.062861
15.699,75.3594,-0.062861
15.730,75.3594,-0.062861
15.762,75.3594,-0.062861
15.793,75.3594,-0.062861
15.823,75.3594,-0.062861
15.855,75.3594,-0.062861
15.886,75.3594,-0.062861
15.916,75.3594,-0.060791
15.947,75.3594,-0.060791
15.978,75.3594,-0.060791
16.009,75.3594,-0.060791
16.040,75.3594,-0.060791
16.070,75.3594,-0.060791
16.101,75.3594,-0.060791
16.133,75.3594,-0.060791
16.164,75.3594,-0.059163
16.195,75.3594,-0.059163
16.226,75.3594,-0.059163
16.258,75.3594,-0.059163
16.288,75.3594,-0.059163
16.320,75.3594,-0.059163
16.351,75.3594,-0.059163
16.381,75.3594,-0.059163
16.412,75.3594,-0.057780
16.444,75.3594,-0.057780
16.475,75.3594,-0.057780
16.507,75.3594,-0.057780
16.536,75.3594,-0.057780
16.567,75.3594,-0.057780
16.598,75.3594,-0.057780
16.629,75.3594,-0.057780
16.660,75.3594,-0.056538
16.688,75.3594,-0.056538
16.723,75.3594,-0.056538
16.753,75.3594,-0.056538
16.787,75.3594,-0.056538
16.816,75.3594,-0.056538
16.851,75.3594,-0.056538
16.878,75.3594,-0.056538
16.910,75.3594,-0.055484
16.941,75.3594,-0.055484
16.975,75.3594,-0.055484
17.003,75.3594,-0.055484
17.034,75.3594,-0.055484
17.066,75.3594,-0.055484
17.096,75.3594,-0.055484
17.127,75.3594,-0.055484
17.158,75.3594,-0.054571
17.189,75.3594,-0.054571
17.221,75.3594,-0.054571
17.251,75.3594,-0.054571
17.282,75.3594,-0.054571
17.313,75.3594,-0.054571
17.345,75.3594,-0.054571
17.376,75.3594,-0.053780
17.407,75.3594,-0.053780
17.438,75.3594,-0.053780
17.469,75.3594,-0.053780
17.500,75.3594,-0.053780
17.533,75.3594,-0.053780
17.563,75.3594,-0.053780
17.597,75.3594,-0.053780
17.625,75.3594,-0.053780
17.656,75.3594,-0.052999
17.688,75.3594,-0.052999
17.718,75.3594,-0.052999
17.749,75.3594,-0.052999
17.780,75.3594,-0.052999
17.811,75.3594,-0.052999
17.842,75.3594,-0.052999
17.873,75.3594,-0.052999
17.904,75.3594,-0.052275
17.935,75.3594,-0.052275
17.966,75.3594,-0.052275
17.996,75.3594,-0.052275
18.028,75.3594,-0.052275
18.058,75.3594,-0.052275
18.089,75.3594,-0.052275
18.120,75.3594,-0.052275
18.150,75.3594,-0.051663
18.181,75.3594,-0.051663
18.212,75.3594,-0.051663
18.244,75.3594,-0.051663
18.274,75.3594,-0.051663
18.306,75.3594,-0.051663
18.336,75.3594,-0.051663
18.367,75.3594,-0.051051
18.399,75.3594,-0.051051
18.429,75.3594,-0.051051
18.461,75.3594,-0.051051
18.492,75.3594,-0.051051
18.525,75.3594,-0.051051
18.553,75.3594,-0.051051
18.585,75.3594,-0.051051
18.616,75.3594,-0.050421
18.646,75.3594,-0.050421
18.677,75.3594,-0.050421
18.708,75.3594,-0.050421
18.739,75.3594,-0.050421
18.771,75.3594,-0.050421
18.801,75.3594,-0.050421
18.835,75.3594,-0.050421
18.862,75.3594,-0.050421
18.893,75.3592,-0.049903
18.924,75.3585,-0.049903
18.955,75.3570,-0.049903
18.986,75.3548,-0.049903
19.017,75.3518,-0.049903
19.048,75.3482,-0.049903
19.078,75.3440,-0.049903
19.109,75.3389,-0.049038
19.139,75.3331,-0.049038
19.171,75.3263,-0.049038
19.202,75.3189,-0.049038
19.233,75.3110,-0.049038
19.265,75.3021,-0.049038
19.296,75.2926,-0.049038
19.326,75.2825,-0.049038
19.357,75.2718,-0.049038
19.388,75.2602,-0.039467
19.419,75.2480,-0.039467
19.450,75.2344,-0.039467
19.481,75.2207,-0.039467
19.512,75.2060,-0.039467
19.543,75.1911,-0.039467
19.576,75.1737,-0.039467
19.605,75.1580,-0.021060
19.637,75.1400,-0.021060
19.667,75.1221,-0.021060
19.699,75.1028,-0.021060
19.729,75.0840,-0.021060
19.760,75.0632,-0.021060
19.792,75.0416,-0.021060
19.823,75.0193,-0.021060
19.854,74.9966,-0.002597
19.885,74.9738,-0.002597
19.915,74.9505,-0.002597
19.947,74.9252,-0.002597
19.977,74.9005,-0.002597
20.008,74.8746,-0.002597
20.039,74.8474,-0.002597
20.070,74.8199,-0.002597
20.101,74.7916,-0.002597
20.132,74.7619,0.013447
20.163,74.7319,0.013447
20.194,74.7007,0.013447
20.226,74.6689,0.013447
20.257,74.6374,0.013447
20.289,74.6039,0.013447
20.320,74.5703,0.013447
20.350,74.5362,0.013447
20.381,74.5020,0.024420
20.412,74.4662,0.024420
20.444,74.4288,0.024420
20.474,74.3936,0.024420
20.504,74.3561,0.024420
20.534,74.3186,0.024420
20.565,74.2792,0.024420
20.596,74.2382,0.024420
20.628,74.1969,0.030791
20.659,74.1555,0.030791
20.692,74.1109,0.030791
20.721,74.0719,0.030791
20.752,74.0279,0.030791
20.783,73.9833,0.030791
20.813,73.9392,0.030791
20.844,73.8920,0.036296
20.875,73.8469,0.036296
20.906,73.7989,0.036296
20.937,73.7518,0.036296
20.968,73.7022,0.036296
20.999,73.6532,0.036296
21.030,73.6028,0.036296
21.061,73.5531,0.036296
21.092,73.5009,0.036296
21.123,73.4474,0.041707
21.154,73.3956,0.041707
21.185,73.3418,0.041707
21.216,73.2864,0.041707
21.247,73.2306,0.041707
21.278,73.1752,0.041707
21.309,73.1198,0.041707
21.340,73.0617,0.041707
21.372,73.0022,0.045527
21.402,72.9456,0.045527
21.433,72.8856,0.045527
21.463,72.8252,0.045527
21.496,72.7624,0.045527
21.525,72.7069,0.045527
21.557,72.6450,0.045527
21.588,72.5878,0.045527
21.620,72.5287,0.030301
21.650,72.4750,0.030301
21.682,72.4157,0.030301
21.713,72.3610,0.030301
21.748,72.2990,0.030301
21.774,72.2556,0.030301
21.805,72.2031,0.030301
21.836,72.1505,0.030301
21.868,72.0983,0.030301
21.898,72.0479,0.011067
21.929,71.9983,0.011067
21.960,71.9501,0.011067
21.991,71.9011,0.011067
22.022,71.8535,0.011067
22.055,71.8032,0.011067
22.084,71.7597,0.011067
22.110,71.7214,0.008187
22.144,71.6715,0.008187
22.175,71.6276,0.008187
22.207,71.5834,0.008187
22.238,71.5402,0.008187
22.270,71.4978,0.008187
22.301,71.4562,0.008187
22.332,71.4158,0.008187
22.364,71.3744,0.008187
22.394,71.3375,0.007764
22.424,71.2986,0.007764
22.456,71.2610,0.007764
22.487,71.2234,0.007764
22.518,71.1887,0.007764
22.549,71.1530,0.007764
22.579,71.1198,0.007764
22.609,71.0860,0.007764
22.640,71.0525,0.007764
22.672,71.0197,0.007679
22.701,70.9898,0.007679
22.732,70.9581,0.007679
22.763,70.9278,0.007679
22.795,70.8979,0.007679
22.825,70.8690,0.007679
22.856,70.8417,0.007679
22.887,70.8143,0.007594
22.918,70.7875,0.007594
22.948,70.7619,0.007594
22.979,70.7360,0.007594
23.010,70.7125,0.007594
23.041,70.6885,0.007594
23.071,70.6661,0.007594
23.104,70.6423,0.007594
23.133,70.6218,0.007594
23.166,70.6000,0.007453
23.196,70.5801,0.007453
23.228,70.5603,0.007453
23.259,70.5411,0.007453
23.289,70.5239,0.007453
23.321,70.5061,0.007453
23.351,70.4901,0.007453
23.383,70.4738,0.007387
23.414,70.4583,0.007387
23.444,70.4444,0.007387
23.477,70.4299,0.007387
23.508,70.4172,0.007387
23.538,70.4054,0.007387
23.569,70.3937,0.007387
23.600,70.3833,0.007387
23.632,70.3730,0.007387
23.662,70.3641,0.007331
23.693,70.3554,0.007331
23.724,70.3476,0.007331
23.755,70.3404,0.007331
23.786,70.3339,0.007331
23.817,70.3286,0.007331
23.849,70.3235,0.007331
23.880,70.3193,0.007265
23.911,70.3158,0.007265
23.943,70.3131,0.007265
23.974,70.3111,0.007265
24.007,70.3099,0.007265
24.036,70.3094,0.007265
24.066,70.3094,0.007265
24.098,70.3094,0.007265
24.127,70.3094,0.007218
24.159,70.3094,0.007218
24.190,70.3094,0.007218
24.220,70.3098,0.007218
24.251,70.3109,0.007218
24.283,70.3127,0.007218
24.313,70.3152,0.007218
24.344,70.3186,0.007218
24.375,70.3225,0.007237
24.406,70.3271,0.007237
24.437,70.3326,0.007237
24.468,70.3388,0.007237
24.499,70.3457,0.007237
24.530,70.3535,0.007237
24.561,70.3618,0.007237
24.593,70.3711,0.007237
24.623,70.3808,0.007190
24.654,70.3914,0.007190
24.685,70.4028,0.007190
24.715,70.4142,0.007190
24.746,70.4272,0.007190
24.778,70.4405,0.007190
24.808,70.4549,0.007190
24.839,70.4694,0.007190
24.869,70.4844,0.006992
24.901,70.5016,0.006992
24.931,70.5177,0.006992
24.962,70.5354,0.006992
24.993,70.5540,0.006992
25.023,70.5733,0.006992
25.054,70.5928,0.006992
25.085,70.6139,0.006992
25.117,70.6352,0.006888
25.147,70.6571,0.006888
25.178,70.6796,0.006888
25.210,70.7038,0.006888
25.241,70.7285,0.006888
25.271,70.7529,0.006888
25.303,70.7793,0.006888
25.334,70.8061,0.006888
25.365,70.8325,0.006888
25.395,70.8602,0.006766
25.426,70.8892,0.006766
25.457,70.9186,0.006766
25.489,70.9487,0.006766
25.521,70.9806,0.006766
25.551,71.0115,0.006766
25.582,71.0441,0.006766
25.614,71.0776,0.006568
25.645,71.1116,0.006568
