Elapsed Time (s),Position (mm),Force (N)
-0.020,73.9093,0.004564
0.011,73.9093,0.004564
0.042,73.9093,0.004564
0.073,73.9093,0.004564
0.104,73.9093,0.004564
0.136,73.9093,0.004564
0.167,73.9093,0.004564
0.198,73.9093,0.004564
0.230,73.9093,0.004498
0.262,73.9093,0.004498
0.292,73.9093,0.004498
0.324,73.9093,0.004498
0.354,73.9093,0.004498
0.386,73.9093,0.004498
0.417,73.9093,0.004498
0.448,73.9093,0.004442
0.480,73.9093,0.004442
0.511,73.9093,0.004442
0.543,73.9093,0.004442
0.574,73.9093,0.004442
0.605,73.9093,0.004442
0.636,73.9093,0.004442
0.667,73.9093,0.004442
0.693,73.9093,0.004442
0.730,73.9093,0.004442
0.761,73.9093,0.004442
0.791,73.9093,0.004442
0.821,73.9093,0.004442
0.853,73.9093,0.004442
0.884,73.9093,0.004442
0.916,73.9093,0.004442
0.946,73.9093,0.004413
0.978,73.9093,0.004413
1.009,73.9093,0.004413
1.040,73.9093,0.004413
1.071,73.9093,0.004413
1.103,73.9093,0.004413
1.133,73.9093,0.004413
1.163,73.9093,0.004413
1.195,73.9093,0.004413
1.226,73.9093,0.004451
1.258,73.9093,0.004451
1.289,73.9093,0.004451
1.321,73.9093,0.004451
1.353,73.9093,0.004451
1.385,73.9093,0.004451
1.416,73.9093,0.004451
1.446,73.9093,0.004479
1.477,73.9093,0.004479
1.509,73.9093,0.004479
1.539,73.9093,0.004479
1.570,73.9093,0.004479
1.601,73.9093,0.004479
1.633,73.9093,0.004479
1.663,73.9093,0.004479
1.695,73.9093,0.004423
1.727,73.9093,0.004423
1.757,73.9093,0.004423
1.788,73.9093,0.004423
1.820,73.9093,0.004423
1.850,73.9093,0.004423
1.881,73.9093,0.004423
1.912,73.9093,0.004423
1.942,73.9093,0.004423
1.973,73.9093,0.004413
2.004,73.9093,0.004413
2.037,73.9093,0.004413
2.068,73.9093,0.004413
2.100,73.9093,0.004413
2.131,73.9093,0.004413
2.162,73.9093,0.004413
2.193,73.9093,0.004413
2.224,73.9093,0.004432
2.255,73.9093,0.004432
2.287,73.9093,0.004432
2.317,73.9093,0.004432
2.348,73.9093,0.004432
2.379,73.9093,0.004432
2.411,73.9093,0.004432
2.442,73.9093,0.004470
2.475,73.9093,0.004470
2.505,73.9093,0.004470
2.537,73.9093,0.004470
2.567,73.9093,0.004470
2.597,73.9093,0.004470
2.628,73.9093,0.004470
2.658,73.9093,0.004470
2.689,73.9093,0.004451
2.721,73.9093,0.004451
2.751,73.9093,0.004451
2.783,73.9093,0.004451
2.814,73.9093,0.004451
2.845,73.9093,0.004451
2.876,73.9093,0.004451
2.908,73.9093,0.004451
2.939,73.9093,0.004395
2.970,73.9093,0.004395
3.000,73.9093,0.004395
3.032,73.9093,0.004395
3.064,73.9093,0.004395
3.094,73.9093,0.004395
3.125,73.9093,0.004395
3.157,73.9093,0.004395
3.187,73.9093,0.004395
3.218,73.9093,0.004395
3.248,73.9093,0.004395
3.279,73.9093,0.004395
3.310,73.9093,0.004395
3.340,73.9093,0.004395
3.371,73.9093,0.004395
3.402,73.9093,0.004395
3.433,73.9093,0.004423
3.464,73.9093,0.004423
3.495,73.9093,0.004423
3.526,73.9093,0.004423
3.557,73.9093,0.004423
3.587,73.9093,0.004423
3.618,73.9093,0.004423
3.649,73.9093,0.004423
3.680,73.9093,0.004423
3.711,73.9093,0.004423
3.742,73.9093,0.004423
3.773,73.9093,0.004423
3.805,73.9093,0.004423
3.836,73.9093,0.004423
3.867,73.9093,0.004423
3.899,73.9093,0.004423
3.929,73.9093,0.004395
3.960,73.9093,0.004395
3.991,73.9093,0.004395
4.023,73.9093,0.004395
4.053,73.9093,0.004395
4.083,73.9089,0.004395
4.114,73.9078,0.004395
4.146,73.9059,0.004395
4.177,73.9033,0.004395
4.209,73.8999,0.004395
4.239,73.8960,0.004395
4.270,73.8913,0.004395
4.302,73.8857,0.004395
4.333,73.8793,0.004395
4.364,73.8726,0.004395
4.395,73.8648,0.004395
4.425,73.8566,0.004395
4.456,73.8473,0.004498
4.487,73.8377,0.004498
4.518,73.8271,0.004498
4.549,73.8158,0.004498
4.580,73.8036,0.004498
4.612,73.7908,0.004498
4.642,73.7777,0.004498
4.672,73.7637,0.004573
4.703,73.7489,0.004573
4.734,73.7333,0.004573
4.765,73.7167,0.004573
4.796,73.6998,0.004573
4.827,73.6820,0.004573
4.857,73.6641,0.004573
4.888,73.6446,0.004573
4.919,73.6251,0.004611
4.950,73.6044,0.004611
4.981,73.5831,0.004611
5.012,73.5603,0.004611
5.042,73.5383,0.004611
5.074,73.5139,0.004611
5.104,73.4905,0.004611
5.136,73.4648,0.004611
5.167,73.4390,0.004668
5.198,73.4120,0.004668
5.229,73.3850,0.004668
5.260,73.3569,0.004668
5.291,73.3277,0.004668
5.322,73.2985,0.004668
5.354,73.2683,0.004668
5.383,73.2383,0.004668
5.415,73.2061,0.004602
5.445,73.1743,0.004602
5.476,73.1418,0.004602
5.507,73.1076,0.004602
5.537,73.0749,0.004602
5.569,73.0389,0.004602
5.599,73.0035,0.004602
5.632,72.9642,0.004602
5.662,72.9280,0.004545
5.694,72.8880,0.004545
5.723,72.8525,0.004545
5.756,72.8103,0.004545
5.786,72.7724,0.004545
5.818,72.7292,0.004545
5.849,72.6873,0.004545
5.878,72.6464,0.004545
5.909,72.6034,0.004545
5.943,72.5563,0.004489
5.971,72.5151,0.004489
6.002,72.4697,0.004489
6.036,72.4186,0.004489
6.065,72.3760,0.004489
6.095,72.3294,0.004489
6.127,72.2804,0.004489
6.158,72.2315,0.004489
6.188,72.1820,0.004479
6.220,72.1312,0.004479
6.251,72.0789,0.004479
6.281,72.0283,0.004479
6.313,71.9750,0.004479
6.344,71.9209,0.004479
6.377,71.8643,0.004479
6.406,71.8119,0.004479
6.437,71.7565,0.004508
6.467,71.7010,0.004508
6.498,71.6449,0.004508
6.530,71.5857,0.004508
6.562,71.5244,0.004508
6.592,71.4660,0.004508
6.624,71.4050,0.004508
6.656,71.3444,0.004508
6.688,71.2830,0.004545
6.719,71.2224,0.004545
6.750,71.1653,0.004545
6.781,71.1078,0.004545
6.811,71.0512,0.004545
6.842,70.9950,0.004545
6.873,70.9408,0.004545
6.906,70.8804,0.004545
6.936,70.8308,0.004423
6.970,70.7719,0.004423
6.998,70.7250,0.004423
7.032,70.6679,0.004423
7.060,70.6215,0.004423
7.092,70.5701,0.004423
7.122,70.5220,0.004423
7.153,70.4730,0.004423
7.183,70.4258,0.004423
7.215,70.3772,0.004338
7.247,70.3300,0.004338
7.277,70.2851,0.004338
7.308,70.2393,0.004338
7.342,70.1906,0.004338
7.370,70.1510,0.004338
7.401,70.1092,0.004338
7.433,70.0651,0.004357
7.464,70.0243,0.004357
7.495,69.9822,0.004357
7.526,69.9425,0.004357
7.557,69.9033,0.004357
7.588,69.8646,0.004357
7.621,69.8245,0.004357
7.649,69.7910,0.004357
7.681,69.7526,0.004357
7.715,69.7144,0.004329
7.742,69.6837,0.004329
7.774,69.6486,0.004329
7.805,69.6150,0.004329
7.835,69.5821,0.004329
7.866,69.5510,0.004329
7.898,69.5191,0.004329
7.930,69.4875,0.004272
7.960,69.4585,0.004272
7.990,69.4304,0.004272
8.023,69.3991,0.004272
8.051,69.3747,0.004272
8.083,69.3466,0.004272
8.114,69.3204,0.004272
8.144,69.2956,0.004272
8.176,69.2699,0.004253
8.206,69.2467,0.004253
8.238,69.2229,0.004253
8.266,69.2027,0.004253
8.299,69.1790,0.004253
8.330,69.1572,0.004253
8.361,69.1372,0.004253
8.391,69.1180,0.004253
8.423,69.0989,0.004338
8.453,69.0812,0.004338
8.483,69.0634,0.004338
8.514,69.0469,0.004338
8.545,69.0305,0.004338
8.576,69.0152,0.004338
8.607,69.0002,0.004338
8.638,68.9865,0.004338
8.670,68.9727,0.004272
8.701,68.9604,0.004272
8.732,68.9485,0.004272
8.763,68.9376,0.004272
8.790,68.9286,0.004272
8.825,68.9177,0.004272
8.855,68.9092,0.004272
8.886,68.9010,0.004272
8.916,68.8938,0.004272
8.947,68.8871,0.004272
8.978,68.8810,0.004272
9.009,68.8759,0.004272
9.040,68.8712,0.004272
9.071,68.8675,0.004272
9.102,68.8644,0.004272
9.133,68.8620,0.004272
9.165,68.8604,0.004329
9.197,68.8594,0.004329
9.227,68.8593,0.004329
9.258,68.8593,0.004329
9.289,68.8593,0.004329
9.321,68.8593,0.004329
9.352,68.8598,0.004329
9.383,68.8609,0.004329
9.414,68.8628,0.004395
9.445,68.8654,0.004395
9.477,68.8689,0.004395
9.507,68.8727,0.004395
9.537,68.8777,0.004395
9.568,68.8830,0.004395
9.599,68.8892,0.004395
9.630,68.8961,0.004395
9.661,68.9038,0.004395
9.692,68.9123,0.004301
9.722,68.9212,0.004301
9.753,68.9312,0.004301
9.784,68.9415,0.004301
9.815,68.9529,0.004301
9.846,68.9651,0.004301
9.878,68.9780,0.004301
9.909,68.9915,0.004301
9.940,69.0059,0.004225
9.971,69.0209,0.004225
10.002,69.0362,0.004225
10.033,69.0529,0.004225
10.065,69.0703,0.004225
10.096,69.0884,0.004225
10.126,69.1067,0.004225
10.158,69.1262,0.004225
10.188,69.1459,0.004272
10.220,69.1675,0.004272
10.250,69.1882,0.004272
10.281,69.2110,0.004272
10.312,69.2335,0.004272
10.343,69.2574,0.004272
10.374,69.2814,0.004272
10.405,69.3068,0.004272
10.436,69.3325,0.004263
10.468,69.3599,0.004263
10.499,69.3874,0.004263
10.530,69.4159,0.004263
10.562,69.4448,0.004263
10.592,69.4738,0.004263
10.622,69.5030,0.004263
10.653,69.5346,0.004263
10.685,69.5659,0.004253
10.715,69.5982,0.004253
10.745,69.6313,0.004253
10.777,69.6650,0.004253
10.809,69.7002,0.004253
10.839,69.7347,0.004253
10.870,69.7706,0.004253
10.900,69.8075,0.004253
10.930,69.8445,0.004253
10.962,69.8840,0.004225
10.994,69.9229,0.004225
11.024,69.9620,0.004225
11.055,70.0013,0.004225
11.086,70.0440,0.004225
11.117,70.0844,0.004225
11.148,70.1274,0.004225
11.180,70.1707,0.004253
11.211,70.2169,0.004253
11.243,70.2611,0.004253
11.274,70.3074,0.004253
11.305,70.3537,0.004253
11.336,70.3998,0.004253
11.367,70.4490,0.004253
11.398,70.4974,0.004253
11.429,70.5460,0.004263
11.460,70.5961,0.004263
11.492,70.6472,0.004263
11.523,70.7003,0.004263
11.553,70.7500,0.004263
11.584,70.8025,0.004263
11.615,70.8562,0.004263
11.646,70.9098,0.004263
11.677,70.9651,0.004282
11.708,71.0210,0.004282
11.739,71.0783,0.004282
11.770,71.1365,0.004282
11.802,71.1938,0.004282
11.832,71.2513,0.004282
11.863,71.3115,0.004282
11.895,71.3719,0.004282
11.925,71.4323,0.004310
11.956,71.4895,0.004310
11.987,71.5478,0.004310
12.017,71.6051,0.004310
12.048,71.6610,0.004310
12.079,71.7182,0.004310
12.110,71.7732,0.004310
12.142,71.8292,0.004310
12.172,71.8822,0.004413
12.203,71.9356,0.004413
12.234,71.9877,0.004413
12.265,72.0394,0.004413
12.296,72.0894,0.004413
12.327,72.1400,0.004413
12.358,72.1891,0.004413
12.388,72.2381,0.004413
12.419,72.2866,0.004526
12.450,72.3334,0.004526
12.481,72.3809,0.004526
12.512,72.4255,0.004526
12.543,72.4721,0.004526
12.574,72.5158,0.004526
12.604,72.5587,0.004526
12.636,72.6032,0.004526
12.667,72.6445,0.004536
12.698,72.6865,0.004536
12.728,72.7266,0.004536
12.760,72.7680,0.004536
12.791,72.8077,0.004536
12.824,72.8481,0.004536
12.853,72.8845,0.004536
12.885,72.9223,0.004536
12.915,72.9582,0.004564
12.946,72.9946,0.004564
12.977,73.0292,0.004564
13.009,73.0641,0.004564
13.040,73.0978,0.004564
13.072,73.1317,0.004564
13.102,73.1633,0.004564
13.134,73.1953,0.004564
13.165,73.2259,0.004573
13.195,73.2552,0.004573
13.225,73.2841,0.004573
13.256,73.3130,0.004573
13.287,73.3405,0.004573
13.321,73.3698,0.004573
13.350,73.3943,0.004573
13.381,73.4203,0.004573
13.412,73.4451,0.004573
13.443,73.4701,0.004564
13.474,73.4927,0.004564
13.505,73.5158,0.004564
13.535,73.5370,0.004564
13.566,73.5578,0.004564
13.597,73.5784,0.004564
13.628,73.5982,0.004564
13.658,73.6175,0.004564
13.689,73.6356,0.004545
13.721,73.6538,0.004545
13.752,73.6705,0.004545
13.783,73.6865,0.004545
13.813,73.7017,0.004545
13.844,73.7166,0.004545
13.874,73.7302,0.004545
13.905,73.7435,0.004545
13.935,73.7559,0.004517
13.966,73.7678,0.004517
13.997,73.7792,0.004517
14.028,73.7892,0.004517
14.059,73.7992,0.004517
14.090,73.8080,0.004517
14.121,73.8163,0.004517
14.154,73.8243,0.004517
14.183,73.8307,0.004517
14.214,73.8367,0.004564
14.246,73.8423,0.004564
14.275,73.8465,0.004564
14.305,73.8505,0.004564
14.337,73.8538,0.004564
14.368,73.8562,0.004564
14.399,73.8579,0.004564
14.430,73.8591,0.004555
14.461,73.8593,0.004555
14.492,73.8593,0.004555
14.523,73.8593,0.004555
14.553,73.8593,0.004555
14.583,73.8593,0.004555
14.614,73.8593,0.004555
14.647,73.8593,0.004555
14.676,73.8593,0.004479
14.708,73.8593,0.004479
14.738,73.8593,0.004479
14.769,73.8593,0.004479
14.799,73.8593,0.004479
14.830,73.8593,0.004479
14.862,73.8593,0.004479
14.893,73.8593,0.004479
14.924,73.8593,0.004498
14.956,73.8593,0.004498
14.987,73.8593,0.004498
15.018,73.8593,0.004498
15.049,73.8593,0.004498
15.081,73.8593,0.004498
15.111,73.8593,0.004498
15.143,73.8593,0.004498
15.174,73.8593,0.004489
15.204,73.8593,0.004489
15.236,73.8593,0.004489
15.267,73.8593,0.004489
15.296,73.8593,0.004489
15.327,73.8593,0.004489
15.357,73.8593,0.004489
15.389,73.8593,0.004489
15.420,73.8593,0.004451
15.451,73.8593,0.004451
15.482,73.8593,0.004451
15.512,73.8593,0.004451
15.543,73.8593,0.004451
15.574,73.8593,0.004451
15.606,73.8593,0.004451
15.637,73.8593,0.004451
15.668,73.8593,0.004442
15.699,73.8593,0.004442
15.729,73.8593,0.004442
15.761,73.8593,0.004442
15.791,73.8593,0.004442
15.822,73.8593,0.004442
15.853,73.8593,0.004442
15.885,73.8593,0.004442
15.916,73.8593,0.004376
15.947,73.8593,0.004376
15.977,73.8593,0.004376
16.008,73.8593,0.004376
16.039,73.8593,0.004376
16.070,73.8593,0.004376
16.101,73.8593,0.004376
16.133,73.8593,0.004376
16.163,73.8593,0.004376
16.195,73.8593,0.004385
16.227,73.8593,0.004385
16.258,73.8593,0.004385
16.290,73.8593,0.004385
16.321,73.8593,0.004385
16.353,73.8593,0.004385
16.384,73.8593,0.004385
16.416,73.8593,0.004385
16.446,73.8593,0.004489
16.477,73.8593,0.004489
16.508,73.8593,0.004489
16.539,73.8593,0.004489
16.570,73.8593,0.004489
16.601,73.8593,0.004489
16.632,73.8593,0.004489
16.664,73.8593,0.004451
16.697,73.8593,0.004451
16.728,73.8593,0.004451
16.759,73.8593,0.004451
16.790,73.8593,0.004451
16.821,73.8593,0.004451
16.852,73.8593,0.004451
16.883,73.8593,0.004451
16.914,73.8593,0.004423
16.945,73.8593,0.004423
16.976,73.8593,0.004423
17.007,73.8593,0.004423
17.038,73.8593,0.004423
17.071,73.8593,0.004423
17.100,73.8593,0.004423
17.132,73.8593,0.004423
17.163,73.8593,0.004423
17.193,73.8593,0.004423
17.224,73.8593,0.004423
17.260,73.8593,0.004423
17.287,73.8593,0.004423
17.318,73.8593,0.004423
17.350,73.8593,0.004423
17.381,73.8593,0.004423
17.412,73.8593,0.004404
17.443,73.8593,0.004404
17.474,73.8593,0.004404
17.506,73.8593,0.004404
17.537,73.8593,0.004404
17.568,73.8593,0.004404
17.598,73.8593,0.004404
17.629,73.8593,0.004404
17.661,73.8593,0.004404
17.691,73.8593,0.004404
17.723,73.8593,0.004404
17.756,73.8593,0.004404
17.787,73.8593,0.004404
17.817,73.8593,0.004404
17.849,73.8593,0.004404
17.880,73.8593,0.004404
17.910,73.8593,0.004404
17.944,73.8593,0.004376
17.972,73.8593,0.004376
18.003,73.8593,0.004376
18.034,73.8593,0.004376
18.066,73.8593,0.004376
18.096,73.8593,0.004376
18.127,73.8593,0.004376
18.157,73.8593,0.004376
18.189,73.8593,0.004404
18.218,73.8593,0.004404
18.250,73.8593,0.004404
18.281,73.8593,0.004404
18.313,73.8593,0.004404
18.344,73.8593,0.004404
18.375,73.8593,0.004404
18.406,73.8593,0.004395
18.437,73.8593,0.004395
18.468,73.8593,0.004395
18.502,73.8593,0.004395
18.530,73.8593,0.004395
18.562,73.8593,0.004395
18.592,73.8593,0.004395
18.622,73.8593,0.004395
18.653,73.8593,0.004395
18.684,73.8593,0.004423
18.716,73.8593,0.004423
18.747,73.8592,0.004423
18.778,73.8584,0.004423
18.810,73.8569,0.004423
18.839,73.8548,0.004423
18.869,73.8521,0.004423
18.901,73.8484,0.004423
18.931,73.8442,0.004451
18.963,73.8390,0.004451
18.995,73.8331,0.004451
19.026,73.8264,0.004451
19.055,73.8195,0.004451
19.088,73.8112,0.004451
19.119,73.8023,0.004451
19.150,73.7928,0.004451
19.182,73.7825,0.004479
19.212,73.7720,0.004479
19.243,73.7602,0.004479
19.274,73.7478,0.004479
19.305,73.7349,0.004479
19.336,73.7206,0.004479
19.367,73.7063,0.004479
19.399,73.6903,0.004479
19.430,73.6745,0.004526
19.461,73.6574,0.004526
19.494,73.6395,0.004526
19.524,73.6211,0.004526
19.558,73.6011,0.004526
19.586,73.5825,0.004526
19.617,73.5623,0.004526
19.649,73.5408,0.004526
19.679,73.5194,0.004526
19.710,73.4973,0.004498
19.741,73.4738,0.004498
19.771,73.4505,0.004498
19.802,73.4249,0.004498
19.833,73.4000,0.004498
19.869,73.3685,0.004498
19.896,73.3460,0.004498
19.927,73.3181,0.004498
19.958,73.2903,0.004508
19.988,73.2611,0.004508
20.019,73.2308,0.004508
20.050,73.2014,0.004508
20.082,73.1686,0.004508
20.114,73.1358,0.004508
20.144,73.1034,0.004508
20.175,73.0706,0.004508
20.206,73.0362,0.004564
20.238,72.9999,0.004564
20.269,72.9645,0.004564
20.300,72.9275,0.004564
20.331,72.8904,0.004564
20.363,72.8520,0.004564
20.394,72.8132,0.004564
20.424,72.7747,0.004564
20.455,72.7347,0.004564
20.487,72.6929,0.004564
20.518,72.6514,0.004564
20.550,72.6070,0.004564
20.580,72.5662,0.004564
20.611,72.5211,0.004564
20.642,72.4779,0.004564
20.673,72.4325,0.004564
20.704,72.3868,0.004564
20.735,72.3395,0.004564
20.765,72.2940,0.004564
20.797,72.2454,0.004564
20.827,72.1973,0.004564
20.858,72.1475,0.004564
20.889,72.0979,0.004564
20.920,72.0457,0.004564
20.951,71.9939,0.004592
20.982,71.9423,0.004592
21.013,71.8902,0.004592
21.044,71.8346,0.004592
21.074,71.7822,0.004592
21.111,71.7148,0.004592
21.137,71.6694,0.004592
21.167,71.6134,0.004592
21.198,71.5561,0.004517
21.230,71.4973,0.004517
21.260,71.4397,0.004517
21.291,71.3791,0.004517
21.322,71.3196,0.004517
21.353,71.2597,0.004517
21.384,71.1995,0.004517
21.416,71.1395,0.004517
21.447,71.0827,0.004432
21.478,71.0241,0.004432
21.509,70.9693,0.004432
21.540,70.9124,0.004432
21.571,70.8576,0.004432
21.601,70.8056,0.004432
21.632,70.7513,0.004432
21.663,70.6970,0.004432
21.694,70.6469,0.004329
21.727,70.5912,0.004329
21.756,70.5448,0.004329
21.788,70.4934,0.004329
21.818,70.4459,0.004329
21.848,70.3984,0.004329
21.880,70.3497,0.004329
21.910,70.3047,0.004329
21.941,70.2579,0.004272
21.971,70.2134,0.004272
22.003,70.1679,0.004272
22.033,70.1231,0.004272
22.064,70.0814,0.004272
22.096,70.0378,0.004272
22.127,69.9954,0.004272
22.157,69.9558,0.004272
22.188,69.9154,0.004338
22.220,69.8744,0.004338
22.250,69.8361,0.004338
22.281,69.7974,0.004338
22.312,69.7611,0.004338
22.343,69.7237,0.004338
22.373,69.6888,0.004338
22.404,69.6531,0.004338
22.435,69.6189,0.004310
22.466,69.5851,0.004310
22.496,69.5523,0.004310
22.527,69.5194,0.004310
22.559,69.4876,0.004310
22.588,69.4578,0.004310
22.619,69.4277,0.004310
22.650,69.3979,0.004310
22.682,69.3685,0.004348
22.712,69.3406,0.004348
22.742,69.3142,0.004348
22.774,69.2868,0.004348
22.805,69.2610,0.004348
22.837,69.2351,0.004348
22.866,69.2112,0.004348
22.897,69.1880,0.004348
22.928,69.1648,0.004348
22.959,69.1424,0.004395
22.990,69.1211,0.004395
23.021,69.1002,0.004395
23.050,69.0811,0.004395
23.081,69.0611,0.004395
23.112,69.0426,0.004395
23.143,69.0244,0.004395
23.174,69.0073,0.004291
23.206,68.9901,0.004291
23.237,68.9745,0.004291
23.267,68.9594,0.004291
23.298,68.9452,0.004291
23.330,68.9314,0.004291
23.361,68.9183,0.004291
23.392,68.9061,0.004291
23.423,68.8942,0.004282
23.454,68.8836,0.004282
23.484,68.8739,0.004282
23.515,68.8644,0.004282
23.547,68.8560,0.004282
23.578,68.8480,0.004282
23.609,68.8408,0.004282
23.639,68.8346,0.004282
23.670,68.8289,0.004291
23.701,68.8238,0.004291
23.732,68.8197,0.004291
23.763,68.8161,0.004291
23.793,68.8134,0.004291
23.824,68.8114,0.004291
23.855,68.8101,0.004291
23.886,68.8093,0.004291
23.917,68.8093,0.004272
23.948,68.8093,0.004272
23.979,68.8093,0.004272
24.010,68.8093,0.004272
24.042,68.8093,0.004272
24.073,68.8094,0.004272
24.104,68.8103,0.004272
24.136,68.8118,0.004272
24.166,68.8140,0.004272
24.197,68.8170,0.004272
24.228,68.8206,0.004357
24.258,68.8251,0.004357
24.289,68.8302,0.004357
24.320,68.8361,0.004357
24.351,68.8427,0.004357
24.382,68.8498,0.004357
24.413,68.8579,0.004357
24.443,68.8665,0.004357
24.474,68.8760,0.004376
24.507,68.8867,0.004376
24.536,68.8968,0.004376
24.567,68.9087,0.004376
24.598,68.9208,0.004376
24.629,68.9342,0.004376
24.659,68.9474,0.004376
24.690,68.9621,0.004338
24.721,68.9774,0.004338
24.755,68.9952,0.004338
24.782,69.0094,0.004338
24.812,69.0267,0.004338
24.843,69.0446,0.004338
24.874,69.0633,0.004338
24.904,69.0830,0.004301
24.935,69.1025,0.004301
24.966,69.1245,0.004301
24.998,69.1464,0.004301
25.029,69.1691,0.004301
25.061,69.1930,0.004301
25.091,69.2165,0.004301
25.132,69.2489,0.004301
25.169,69.2801,0.004291
25.201,69.3065,0.004291
25.232,69.3344,0.004291
25.262,69.3610,0.004291
25.293,69.3905,0.004291
25.324,69.4188,0.004291
25.355,69.4504,0.004291
25.387,69.4815,0.004291
25.418,69.5132,0.004291
25.449,69.5450,0.004301
25.481,69.5800,0.004301
25.511,69.6131,0.004301
25.543,69.6470,0.004301
25.573,69.6827,0.004301
25.605,69.7187,0.004301
25.636,69.7555,0.004301
25.666,69.7925,0.004301
25.698,69.8323,0.004291
25.729,69.8703,0.004291
25.760,69.9103,0.004291
25.791,69.9511,0.004291
25.821,69.9908,0.004291
25.853,70.0336,0.004291
25.884,70.0766,0.004291
25.915,70.1196,0.004244
25.946,70.1634,0.004244
25.977,70.2081,0.004244
26.008,70.2534,0.004244
26.038,70.2986,0.004244
26.070,70.3470,0.004244
26.101,70.3935,0.004244
26.132,70.4428,0.004244
26.163,70.4914,0.004282
