Elapsed Time (s),Position (mm),Force (N)
-0.017,66.1593,0.004413
0.014,66.1593,0.004413
0.045,66.1593,0.004413
0.076,66.1593,0.004413
0.107,66.1593,0.004413
0.139,66.1593,0.004413
0.169,66.1593,0.004413
0.200,66.1593,0.004310
0.231,66.1593,0.004310
0.265,66.1593,0.004310
0.292,66.1593,0.004310
0.322,66.1593,0.004310
0.355,66.1593,0.004310
0.386,66.1593,0.004310
0.416,66.1593,0.004263
0.447,66.1593,0.004263
0.479,66.1593,0.004263
0.511,66.1593,0.004263
0.542,66.1593,0.004263
0.575,66.1593,0.004263
0.603,66.1593,0.004263
0.635,66.1593,0.004263
0.666,66.1593,0.004235
0.692,66.1593,0.004235
0.727,66.1593,0.004235
0.758,66.1593,0.004235
0.789,66.1593,0.004235
0.820,66.1593,0.004235
0.850,66.1593,0.004235
0.881,66.1593,0.004235
0.919,66.1593,0.004253
0.959,66.1593,0.004253
0.990,66.1593,0.004253
1.020,66.1593,0.004253
1.052,66.1593,0.004253
1.083,66.1593,0.004253
1.115,66.1593,0.004253
1.144,66.1593,0.004263
1.175,66.1593,0.004263
1.206,66.1593,0.004263
1.238,66.1593,0.004263
1.269,66.1593,0.004263
1.300,66.1593,0.004263
1.331,66.1593,0.004263
1.363,66.1593,0.004263
1.394,66.1593,0.004263
1.425,66.1593,0.004263
1.456,66.1593,0.004263
1.487,66.1593,0.004263
1.518,66.1593,0.004263
1.549,66.1593,0.004263
1.580,66.1593,0.004263
1.612,66.1593,0.004263
1.643,66.1593,0.004263
1.674,66.1593,0.004291
1.705,66.1593,0.004291
1.737,66.1593,0.004291
1.768,66.1593,0.004291
1.800,66.1593,0.004291
1.830,66.1593,0.004291
1.862,66.1593,0.004291
1.895,66.1593,0.004291
1.924,66.1593,0.004282
1.955,66.1593,0.004282
1.987,66.1593,0.004282
2.018,66.1593,0.004282
2.049,66.1593,0.004282
2.080,66.1593,0.004282
2.111,66.1593,0.004282
2.142,66.1593,0.004282
2.172,66.1593,0.004282
2.203,66.1593,0.004282
2.234,66.1593,0.004282
2.266,66.1593,0.004282
2.298,66.1593,0.004282
2.329,66.1593,0.004282
2.360,66.1593,0.004282
2.392,66.1593,0.004282
2.422,66.1593,0.004291
2.453,66.1593,0.004291
2.484,66.1593,0.004291
2.515,66.1593,0.004291
2.545,66.1593,0.004291
2.576,66.1593,0.004291
2.608,66.1593,0.004291
2.641,66.1593,0.004291
2.670,66.1593,0.004282
2.701,66.1593,0.004282
2.732,66.1593,0.004282
2.763,66.1593,0.004282
2.795,66.1593,0.004282
2.826,66.1593,0.004282
2.856,66.1593,0.004282
2.888,66.1593,0.004282
2.919,66.1593,0.004244
2.949,66.1593,0.004244
2.981,66.1593,0.004244
3.012,66.1593,0.004244
3.042,66.1593,0.004244
3.073,66.1593,0.004244
3.104,66.1593,0.004244
3.138,66.1593,0.004244
3.166,66.1593,0.004291
3.197,66.1593,0.004291
3.228,66.1593,0.004291
3.259,66.1593,0.004291
3.290,66.1593,0.004291
3.320,66.1593,0.004291
3.351,66.1593,0.004291
3.383,66.1593,0.004291
3.412,66.1593,0.004301
3.442,66.1593,0.004301
3.473,66.1593,0.004301
3.504,66.1593,0.004301
3.535,66.1593,0.004301
3.566,66.1593,0.004301
3.598,66.1593,0.004301
3.629,66.1593,0.004301
3.661,66.1593,0.004282
3.691,66.1593,0.004282
3.722,66.1593,0.004282
3.753,66.1593,0.004282
3.784,66.1593,0.004282
3.816,66.1593,0.004282
3.846,66.1593,0.004282
3.877,66.1593,0.004282
3.907,66.1593,0.004282
3.938,66.1593,0.004291
3.969,66.1593,0.004291
4.000,66.1593,0.004291
4.030,66.1593,0.004291
4.061,66.1593,0.004291
4.092,66.1593,0.004291
4.122,66.1593,0.004291
4.152,66.1587,0.004291
4.184,66.1573,0.004216
4.215,66.1552,0.004216
4.246,66.1524,0.004216
4.277,66.1488,0.004216
4.308,66.1444,0.004216
4.340,66.1393,0.004216
4.371,66.1335,0.004216
4.401,66.1272,0.004216
4.432,66.1200,0.004385
4.462,66.1123,0.004385
4.493,66.1037,0.004385
4.525,66.0941,0.004385
4.556,66.0840,0.004385
4.586,66.0735,0.004385
4.619,66.0616,0.004385
4.649,66.0492,0.004451
4.681,66.0359,0.004451
4.712,66.0220,0.004451
4.743,66.0078,0.004451
4.774,65.9926,0.004451
4.805,65.9767,0.004451
4.836,65.9598,0.004451
4.867,65.9429,0.004451
4.898,65.9243,0.004451
4.929,65.9051,0.004348
4.961,65.8855,0.004348
4.991,65.8654,0.004348
5.022,65.8447,0.004348
5.054,65.8221,0.004348
5.084,65.8003,0.004348
5.116,65.7763,0.004348
5.146,65.7525,0.004376
5.177,65.7289,0.004376
5.208,65.7036,0.004376
5.239,65.6772,0.004376
5.270,65.6508,0.004376
5.300,65.6229,0.004376
5.331,65.5950,0.004376
5.362,65.5657,0.004376
5.393,65.5365,0.004385
5.425,65.5052,0.004385
5.455,65.4746,0.004385
5.486,65.4423,0.004385
5.517,65.4100,0.004385
5.548,65.3760,0.004385
5.579,65.3422,0.004385
5.610,65.3068,0.004385
5.641,65.2724,0.004413
5.673,65.2342,0.004413
5.704,65.1975,0.004413
5.737,65.1579,0.004413
5.766,65.1211,0.004413
5.798,65.0796,0.004413
5.828,65.0424,0.004413
5.858,65.0028,0.004413
5.890,64.9605,0.004413
5.921,64.9190,0.004432
5.952,64.8748,0.004432
5.982,64.8321,0.004432
6.014,64.7877,0.004432
6.044,64.7441,0.004432
6.076,64.6966,0.004432
6.106,64.6514,0.004432
6.138,64.6023,0.004432
6.167,64.5585,0.004404
6.200,64.5058,0.004404
6.229,64.4597,0.004404
6.263,64.4041,0.004404
6.292,64.3587,0.004404
6.323,64.3063,0.004404
6.354,64.2538,0.004404
6.385,64.2011,0.004404
6.416,64.1465,0.004376
6.447,64.0921,0.004376
6.478,64.0357,0.004376
6.509,63.9815,0.004376
6.540,63.9252,0.004376
6.571,63.8686,0.004376
6.602,63.8107,0.004376
6.632,63.7516,0.004376
6.664,63.6915,0.004376
6.694,63.6305,0.004376
6.725,63.5718,0.004376
6.756,63.5114,0.004376
6.786,63.4549,0.004376
6.817,63.3968,0.004376
6.848,63.3406,0.004376
6.880,63.2827,0.004376
6.910,63.2290,0.004291
6.941,63.1733,0.004291
6.972,63.1195,0.004291
7.002,63.0662,0.004291
7.033,63.0123,0.004291
7.064,62.9617,0.004291
7.095,62.9093,0.004291
7.125,62.8594,0.004291
7.157,62.8099,0.004216
7.188,62.7593,0.004216
7.218,62.7121,0.004216
7.249,62.6632,0.004216
7.280,62.6179,0.004216
7.311,62.5711,0.004216
7.342,62.5251,0.004216
7.372,62.4818,0.004216
7.404,62.4363,0.004141
7.434,62.3921,0.004141
7.465,62.3514,0.004141
7.496,62.3090,0.004141
7.527,62.2680,0.004141
7.560,62.2238,0.004141
7.588,62.1870,0.004141
7.619,62.1481,0.004141
7.650,62.1090,0.004141
7.681,62.0729,0.004103
7.711,62.0360,0.004103
7.742,61.9997,0.004103
7.773,61.9643,0.004103
7.804,61.9294,0.004103
7.835,61.8950,0.004103
7.866,61.8615,0.004103
7.897,61.8287,0.004150
7.929,61.7965,0.004150
7.960,61.7645,0.004150
7.992,61.7335,0.004150
8.023,61.7033,0.004150
8.055,61.6739,0.004150
8.085,61.6460,0.004150
8.116,61.6188,0.004150
8.147,61.5920,0.004178
8.177,61.5662,0.004178
8.208,61.5413,0.004178
8.238,61.5171,0.004178
8.270,61.4926,0.004178
8.301,61.4690,0.004178
8.333,61.4463,0.004178
8.364,61.4243,0.004178
8.394,61.4036,0.004206
8.425,61.3834,0.004206
8.456,61.3634,0.004206
8.487,61.3445,0.004206
8.519,61.3264,0.004206
8.550,61.3086,0.004206
8.581,61.2920,0.004206
8.612,61.2760,0.004206
8.643,61.2609,0.004169
8.675,61.2457,0.004169
8.706,61.2321,0.004169
8.738,61.2188,0.004169
8.768,61.2071,0.004169
8.799,61.1956,0.004169
8.829,61.1849,0.004169
8.860,61.1751,0.004169
8.891,61.1653,0.004169
8.922,61.1567,0.004122
8.953,61.1486,0.004122
8.985,61.1413,0.004122
9.017,61.1346,0.004122
9.047,61.1290,0.004122
9.079,61.1238,0.004122
9.109,61.1199,0.004122
9.141,61.1161,0.004122
9.171,61.1135,0.004084
9.202,61.1114,0.004084
9.232,61.1101,0.004084
9.263,61.1093,0.004084
9.294,61.1093,0.004084
9.321,61.1093,0.004084
9.357,61.1093,0.004084
9.390,61.1093,0.004084
9.419,61.1097,0.004178
9.450,61.1107,0.004178
9.481,61.1125,0.004178
9.513,61.1150,0.004178
9.544,61.1184,0.004178
9.575,61.1225,0.004178
9.607,61.1273,0.004178
9.638,61.1329,0.004178
9.669,61.1390,0.004216
9.701,61.1459,0.004216
9.731,61.1536,0.004216
9.762,61.1619,0.004216
9.792,61.1708,0.004216
9.823,61.1805,0.004216
9.854,61.1911,0.004216
9.885,61.2022,0.004216
9.917,61.2145,0.004122
9.947,61.2269,0.004122
9.978,61.2403,0.004122
10.010,61.2549,0.004122
10.041,61.2699,0.004122
10.073,61.2859,0.004122
10.104,61.3026,0.004122
10.135,61.3194,0.004122
10.166,61.3378,0.004169
10.197,61.3563,0.004169
10.228,61.3751,0.004169
10.258,61.3950,0.004169
10.289,61.4159,0.004169
10.320,61.4379,0.004169
10.352,61.4599,0.004169
10.384,61.4835,0.004169
10.414,61.5066,0.004206
10.447,61.5330,0.004206
10.477,61.5573,0.004206
10.509,61.5840,0.004206
10.539,61.6095,0.004206
10.570,61.6373,0.004206
10.600,61.6645,0.004206
10.632,61.6941,0.004206
10.662,61.7225,0.004159
10.694,61.7535,0.004159
10.724,61.7839,0.004159
10.756,61.8156,0.004159
10.787,61.8491,0.004159
10.817,61.8815,0.004159
10.849,61.9156,0.004159
10.880,61.9511,0.004159
10.911,61.9855,0.004159
10.942,62.0211,0.004103
10.974,62.0592,0.004103
11.005,62.0975,0.004103
11.036,62.1350,0.004103
11.067,62.1753,0.004103
11.099,62.2151,0.004103
11.130,62.2565,0.004103
11.161,62.2968,0.004112
11.191,62.3377,0.004112
11.222,62.3796,0.004112
11.253,62.4237,0.004112
11.283,62.4664,0.004112
11.315,62.5125,0.004112
11.345,62.5579,0.004112
11.382,62.6141,0.004112
11.423,62.6738,0.004141
11.455,62.7232,0.004141
11.485,62.7714,0.004141
11.516,62.8207,0.004141
11.547,62.8716,0.004141
11.578,62.9230,0.004141
11.616,62.9857,0.004141
11.656,63.0544,0.004103
11.687,63.1080,0.004103
11.720,63.1644,0.004103
11.749,63.2172,0.004103
11.780,63.2730,0.004103
11.811,63.3291,0.004103
11.844,63.3895,0.004103
11.873,63.4448,0.004103
11.904,63.5046,0.004150
11.935,63.5626,0.004150
11.967,63.6246,0.004150
11.998,63.6829,0.004150
12.028,63.7412,0.004150
12.059,63.7984,0.004150
12.090,63.8571,0.004150
12.121,63.9144,0.004150
12.154,63.9730,0.004150
12.184,64.0270,0.004310
12.214,64.0815,0.004310
12.246,64.1351,0.004310
12.277,64.1892,0.004310
12.307,64.2403,0.004310
12.338,64.2923,0.004310
12.370,64.3435,0.004310
12.401,64.3941,0.004310
12.431,64.4437,0.004395
12.462,64.4918,0.004395
12.493,64.5407,0.004395
12.524,64.5869,0.004395
12.556,64.6357,0.004395
12.587,64.6812,0.004395
12.617,64.7256,0.004395
12.649,64.7706,0.004395
12.679,64.8146,0.004338
12.710,64.8576,0.004338
12.741,64.8984,0.004338
12.771,64.9392,0.004338
12.801,64.9790,0.004338
12.832,65.0192,0.004338
12.864,65.0589,0.004338
12.895,65.0984,0.004338
12.925,65.1354,0.004376
12.957,65.1728,0.004376
12.987,65.2083,0.004376
13.018,65.2450,0.004376
13.048,65.2787,0.004376
13.080,65.3147,0.004376
13.111,65.3472,0.004376
13.142,65.3802,0.004376
13.172,65.4113,0.004470
13.203,65.4441,0.004470
13.234,65.4741,0.004470
13.266,65.5052,0.004470
13.296,65.5339,0.004470
13.328,65.5633,0.004470
13.359,65.5903,0.004470
13.392,65.6210,0.004470
13.420,65.6435,0.004489
13.452,65.6694,0.004489
13.482,65.6945,0.004489
13.513,65.7187,0.004489
13.545,65.7428,0.004489
13.576,65.7650,0.004489
13.606,65.7880,0.004489
13.638,65.8089,0.004489
13.669,65.8292,0.004423
13.699,65.8485,0.004423
13.730,65.8677,0.004423
13.760,65.8858,0.004423
13.793,65.9041,0.004423
13.824,65.9211,0.004423
13.856,65.9379,0.004423
13.887,65.9532,0.004423
13.918,65.9674,0.004413
13.949,65.9817,0.004413
13.979,65.9946,0.004413
14.010,66.0074,0.004413
14.040,66.0188,0.004413
14.072,66.0302,0.004413
14.103,66.0405,0.004413
14.133,66.0498,0.004413
14.164,66.0587,0.004413
14.195,66.0669,0.004404
14.227,66.0746,0.004404
14.257,66.0813,0.004404
14.288,66.0871,0.004404
14.321,66.0928,0.004404
14.350,66.0972,0.004404
14.380,66.1009,0.004404
14.412,66.1041,0.004385
14.442,66.1065,0.004385
14.473,66.1081,0.004385
14.504,66.1091,0.004385
14.535,66.1093,0.004385
14.566,66.1093,0.004385
14.597,66.1093,0.004385
14.629,66.1093,0.004385
14.659,66.1093,0.004385
14.691,66.1093,0.004385
14.722,66.1093,0.004385
14.753,66.1093,0.004385
14.784,66.1093,0.004385
14.815,66.1093,0.004385
14.846,66.1093,0.004385
14.877,66.1093,0.004385
14.909,66.1093,0.004282
14.939,66.1093,0.004282
14.970,66.1093,0.004282
15.001,66.1093,0.004282
15.032,66.1093,0.004282
15.063,66.1093,0.004282
15.095,66.1093,0.004282
15.128,66.1093,0.004282
15.158,66.1093,0.004253
15.191,66.1093,0.004253
15.221,66.1093,0.004253
15.252,66.1093,0.004253
15.282,66.1093,0.004253
15.314,66.1093,0.004253
15.345,66.1093,0.004253
15.375,66.1093,0.004253
15.406,66.1093,0.004329
15.437,66.1093,0.004329
15.469,66.1093,0.004329
15.500,66.1093,0.004329
15.530,66.1093,0.004329
15.561,66.1093,0.004329
15.592,66.1093,0.004329
15.623,66.1093,0.004329
15.654,66.1093,0.004329
15.683,66.1093,0.004376
15.714,66.1093,0.004376
15.745,66.1093,0.004376
15.775,66.1093,0.004376
15.807,66.1093,0.004376
15.839,66.1093,0.004376
15.869,66.1093,0.004376
15.901,66.1093,0.004376
15.931,66.1093,0.004319
15.963,66.1093,0.004319
15.994,66.1093,0.004319
16.025,66.1093,0.004319
16.054,66.1093,0.004319
16.085,66.1093,0.004319
16.117,66.1093,0.004319
16.149,66.1093,0.004319
16.180,66.1093,0.004235
16.211,66.1093,0.004235
16.242,66.1093,0.004235
16.273,66.1093,0.004235
16.304,66.1093,0.004235
16.335,66.1093,0.004235
16.366,66.1093,0.004235
16.397,66.1093,0.004235
16.428,66.1093,0.004272
16.458,66.1093,0.004272
16.489,66.1093,0.004272
16.520,66.1093,0.004272
16.551,66.1093,0.004272
16.583,66.1093,0.004272
16.615,66.1093,0.004272
16.646,66.1093,0.004272
16.677,66.1093,0.004319
16.713,66.1093,0.004319
16.739,66.1093,0.004319
16.769,66.1093,0.004319
16.800,66.1093,0.004319
16.831,66.1093,0.004319
16.862,66.1093,0.004319
16.893,66.1093,0.004319
16.924,66.1093,0.004301
16.955,66.1093,0.004301
16.987,66.1093,0.004301
17.018,66.1093,0.004301
17.049,66.1093,0.004301
17.080,66.1093,0.004301
17.109,66.1093,0.004301
17.140,66.1093,0.004301
17.171,66.1093,0.004291
17.202,66.1093,0.004291
17.232,66.1093,0.004291
17.264,66.1093,0.004291
17.295,66.1093,0.004291
17.327,66.1093,0.004291
17.358,66.1093,0.004291
17.388,66.1093,0.004291
17.420,66.1093,0.004291
17.451,66.1093,0.004301
17.482,66.1093,0.004301
17.512,66.1093,0.004301
17.543,66.1093,0.004301
17.574,66.1093,0.004301
17.605,66.1093,0.004301
17.636,66.1093,0.004301
17.667,66.1093,0.004272
17.698,66.1093,0.004272
17.728,66.1093,0.004272
17.758,66.1093,0.004272
17.790,66.1093,0.004272
17.825,66.1093,0.004272
17.855,66.1093,0.004272
17.883,66.1093,0.004272
17.915,66.1093,0.004282
17.946,66.1093,0.004282
17.977,66.1093,0.004282
18.008,66.1093,0.004282
18.039,66.1093,0.004282
18.070,66.1093,0.004282
18.102,66.1093,0.004282
18.133,66.1093,0.004282
18.164,66.1093,0.004301
18.195,66.1093,0.004301
18.227,66.1093,0.004301
18.258,66.1093,0.004301
18.288,66.1093,0.004301
18.320,66.1093,0.004301
18.351,66.1093,0.004301
18.381,66.1093,0.004301
18.411,66.1093,0.004301
18.442,66.1093,0.004301
18.474,66.1093,0.004301
18.505,66.1093,0.004301
18.535,66.1093,0.004301
18.566,66.1093,0.004301
18.597,66.1093,0.004301
18.628,66.1093,0.004301
18.660,66.1093,0.004291
18.691,66.1093,0.004291
18.721,66.1093,0.004291
18.752,66.1093,0.004291
18.783,66.1093,0.004291
18.813,66.1093,0.004291
18.844,66.1092,0.004291
18.874,66.1085,0.004291
18.906,66.1070,0.004338
18.936,66.1047,0.004338
18.967,66.1018,0.004338
18.998,66.0980,0.004338
19.029,66.0936,0.004338
19.059,66.0890,0.004338
19.090,66.0829,0.004338
19.120,66.0768,0.004338
19.151,66.0694,0.004461
19.183,66.0613,0.004461
19.214,66.0525,0.004461
19.244,66.0432,0.004461
19.276,66.0328,0.004461
19.308,66.0215,0.004461
19.338,66.0101,0.004461
19.370,65.9978,0.004461
19.401,65.9846,0.004461
19.431,65.9709,0.004461
19.463,65.9558,0.004461
19.494,65.9407,0.004461
19.526,65.9240,0.004461
19.555,65.9083,0.004461
19.586,65.8910,0.004461
19.617,65.8728,0.004461
19.650,65.8531,0.004461
19.680,65.8336,0.004376
19.714,65.8113,0.004376
19.741,65.7929,0.004376
19.772,65.7707,0.004376
19.802,65.7487,0.004376
19.839,65.7210,0.004376
19.865,65.7008,0.004376
19.896,65.6762,0.004376
19.927,65.6506,0.004366
19.959,65.6238,0.004366
19.990,65.5967,0.004366
20.020,65.5698,0.004366
20.054,65.5392,0.004366
20.083,65.5113,0.004366
20.114,65.4825,0.004366
20.140,65.4565,0.004366
20.174,65.4219,0.004366
20.205,65.3905,0.004366
20.235,65.3582,0.004366
20.266,65.3250,0.004366
20.297,65.2900,0.004366
20.328,65.2551,0.004366
20.359,65.2203,0.004366
20.390,65.1842,0.004366
20.422,65.1460,0.004404
20.455,65.1049,0.004404
20.485,65.0689,0.004404
20.514,65.0318,0.004404
20.545,64.9918,0.004404
20.575,64.9521,0.004404
20.607,64.9094,0.004404
20.638,64.8671,0.004404
20.669,64.8232,0.004404
20.700,64.7808,0.004442
20.732,64.7353,0.004442
20.762,64.6912,0.004442
20.793,64.6462,0.004442
20.824,64.6000,0.004442
20.855,64.5518,0.004442
20.886,64.5038,0.004442
20.917,64.4545,0.004423
20.948,64.4059,0.004423
20.980,64.3545,0.004423
21.011,64.3034,0.004423
21.042,64.2505,0.004423
21.074,64.1968,0.004423
21.104,64.1453,0.004423
21.135,64.0918,0.004423
21.167,64.0354,0.004423
21.197,63.9808,0.004385
21.229,63.9248,0.004385
21.260,63.8682,0.004385
21.291,63.8106,0.004385
21.322,63.7516,0.004385
21.352,63.6943,0.004385
21.384,63.6322,0.004385
21.415,63.5733,0.004385
21.447,63.5115,0.004385
21.477,63.4536,0.004385
21.508,63.3962,0.004385
21.539,63.3375,0.004385
21.570,63.2792,0.004385
21.601,63.2244,0.004385
21.632,63.1685,0.004385
21.663,63.1134,0.004301
21.694,63.0585,0.004301
21.725,63.0049,0.004301
21.756,62.9509,0.004301
21.787,62.9011,0.004301
21.819,62.8478,0.004301
21.848,62.7991,0.004301
21.879,62.7483,0.004301
21.911,62.6996,0.004178
21.943,62.6497,0.004178
21.972,62.6038,0.004178
22.003,62.5572,0.004178
22.034,62.5103,0.004178
22.064,62.4663,0.004178
22.096,62.4201,0.004178
22.127,62.3763,0.004178
22.158,62.3334,0.004159
22.188,62.2902,0.004159
22.220,62.2487,0.004159
22.251,62.2072,0.004159
22.281,62.1675,0.004159
22.312,62.1273,0.004159
22.343,62.0897,0.004159
22.374,62.0503,0.004159
22.405,62.0133,0.004150
22.436,61.9760,0.004150
22.467,61.9407,0.004150
22.498,61.9041,0.004150
22.529,61.8702,0.004150
22.560,61.8351,0.004150
22.591,61.8027,0.004150
22.621,61.7706,0.004150
22.652,61.7391,0.004159
22.688,61.7027,0.004159
22.714,61.6772,0.004159
22.745,61.6478,0.004159
22.776,61.6197,0.004159
22.806,61.5913,0.004159
22.837,61.5642,0.004159
22.868,61.5376,0.004159
22.899,61.5122,0.004178
22.930,61.4867,0.004178
22.961,61.4617,0.004178
22.992,61.4377,0.004178
23.023,61.4147,0.004178
23.053,61.3931,0.004178
23.084,61.3713,0.004178
23.114,61.3508,0.004178
23.146,61.3302,0.004169
23.178,61.3106,0.004169
23.209,61.2916,0.004169
23.239,61.2740,0.004169
23.271,61.2562,0.004169
23.301,61.2404,0.004169
23.332,61.2244,0.004169
23.362,61.2095,0.004169
23.393,61.1954,0.004169
23.423,61.1819,0.004169
23.455,61.1687,0.004169
23.485,61.1568,0.004169
23.516,61.1452,0.004169
23.547,61.1341,0.004169
23.578,61.1245,0.004169
23.609,61.1150,0.004169
23.640,61.1062,0.004169
23.670,61.0985,0.004131
23.701,61.0915,0.004131
23.732,61.0850,0.004131
23.763,61.0793,0.004131
23.794,61.0742,0.004131
23.825,61.0699,0.004131
23.856,61.0663,0.004131
23.887,61.0636,0.004131
23.918,61.0615,0.004112
23.948,61.0601,0.004112
23.979,61.0595,0.004112
24.010,61.0593,0.004112
24.040,61.0593,0.004112
24.071,61.0593,0.004112
24.102,61.0593,0.004112
24.133,61.0593,0.004112
24.164,61.0593,0.004112
24.194,61.0593,0.004216
24.225,61.0598,0.004216
24.255,61.0610,0.004216
24.285,61.0629,0.004216
24.316,61.0655,0.004216
24.347,61.0689,0.004216
24.378,61.0730,0.004216
24.410,61.0779,0.004216
24.441,61.0834,0.004263
24.471,61.0896,0.004263
24.502,61.0963,0.004263
24.533,61.1040,0.004263
24.564,61.1124,0.004263
24.594,61.1217,0.004263
24.625,61.1313,0.004263
24.655,61.1416,0.004263
24.687,61.1531,0.004197
24.720,61.1659,0.004197
24.750,61.1783,0.004197
24.782,61.1924,0.004197
24.812,61.2062,0.004197
24.843,61.2217,0.004197
24.874,61.2372,0.004197
24.905,61.2533,0.004197
24.937,61.2709,0.004131
24.968,61.2890,0.004131
24.999,61.3074,0.004131
25.029,61.3271,0.004131
25.060,61.3462,0.004131
25.090,61.3673,0.004131
25.121,61.3883,0.004131
25.153,61.4112,0.004131
25.184,61.4341,0.004103
25.215,61.4583,0.004103
25.245,61.4815,0.004103
25.276,61.5068,0.004103
25.306,61.5320,0.004103
25.337,61.5580,0.004103
25.368,61.5859,0.004103
25.405,61.6188,0.004103
25.430,61.6430,0.004141
25.461,61.6724,0.004141
25.493,61.7031,0.004141
25.523,61.7329,0.004141
25.556,61.7678,0.004141
25.586,61.7978,0.004141
25.617,61.8316,0.004141
25.648,61.8652,0.004112
25.679,61.9000,0.004112
25.709,61.9338,0.004112
25.740,61.9700,0.004112
25.770,62.0064,0.004112
25.801,62.0432,0.004112
25.832,62.0812,0.004112
25.863,62.1201,0.004112
25.894,62.1596,0.004056
25.924,62.1994,0.004056
25.954,62.2387,0.004056
25.986,62.2816,0.004056
26.016,62.3234,0.004056
26.047,62.3670,0.004056
26.078,62.4097,0.004056
26.109,62.4557,0.004056
26.140,62.5004,0.004056
26.171,62.5473,0.004065
