Elapsed Time (s),Position (mm),Force (N)
-0.012,81.4094,-0.019592
0.020,81.4094,-0.019592
0.050,81.4094,-0.019592
0.083,81.4094,-0.019592
0.113,81.4094,-0.019592
0.144,81.4094,-0.019592
0.174,81.4094,-0.018538
0.205,81.4094,-0.018538
0.237,81.4094,-0.018538
0.268,81.4094,-0.018538
0.300,81.4094,-0.018538
0.332,81.4094,-0.018538
0.363,81.4094,-0.018538
0.393,81.4094,-0.018538
0.424,81.4094,-0.016685
0.455,81.4094,-0.016685
0.486,81.4094,-0.016685
0.517,81.4094,-0.016685
0.548,81.4094,-0.016685
0.578,81.4094,-0.016685
0.609,81.4094,-0.016685
0.641,81.4094,-0.015499
0.672,81.4094,-0.015499
0.702,81.4094,-0.015499
0.733,81.4094,-0.015499
0.764,81.4094,-0.015499
0.794,81.4094,-0.015499
0.825,81.4094,-0.015499
0.856,81.4094,-0.015499
0.887,81.4094,-0.015499
0.918,81.4094,-0.014624
0.950,81.4094,-0.014624
0.982,81.4094,-0.014624
1.012,81.4094,-0.014624
1.044,81.4094,-0.014624
1.074,81.4094,-0.014624
1.107,81.4094,-0.014624
1.138,81.4094,-0.013937
1.169,81.4094,-0.013937
1.199,81.4094,-0.013937
1.234,81.4094,-0.013937
1.260,81.4094,-0.013937
1.291,81.4094,-0.013937
1.322,81.4094,-0.013937
1.354,81.4094,-0.013937
1.384,81.4094,-0.013937
1.415,81.4094,-0.013429
1.446,81.4094,-0.013429
1.477,81.4094,-0.013429
1.508,81.4094,-0.013429
1.538,81.4094,-0.013429
1.569,81.4094,-0.013429
1.604,81.4094,-0.013429
1.632,81.4094,-0.012958
1.662,81.4094,-0.012958
1.693,81.4094,-0.012958
1.728,81.4094,-0.012958
1.755,81.4094,-0.012958
1.786,81.4094,-0.012958
1.818,81.4094,-0.012958
1.848,81.4094,-0.012958
1.879,81.4094,-0.012535
1.912,81.4094,-0.012535
1.940,81.4094,-0.012535
1.971,81.4094,-0.012535
2.001,81.4094,-0.012535
2.032,81.4094,-0.012535
2.063,81.4094,-0.012535
2.094,81.4094,-0.012535
2.126,81.4094,-0.012234
2.157,81.4094,-0.012234
2.188,81.4094,-0.012234
2.221,81.4094,-0.012234
2.250,81.4094,-0.012234
2.280,81.4094,-0.012234
2.311,81.4094,-0.012234
2.342,81.4094,-0.012234
2.376,81.4094,-0.012234
2.404,81.4094,-0.012234
2.435,81.4094,-0.012017
2.465,81.4094,-0.012017
2.498,81.4094,-0.012017
2.527,81.4094,-0.012017
2.558,81.4094,-0.012017
2.589,81.4094,-0.012017
2.621,81.4094,-0.012017
2.652,81.4094,-0.012017
2.683,81.4094,-0.011716
2.714,81.4094,-0.011716
2.745,81.4094,-0.011716
2.777,81.4094,-0.011716
2.808,81.4094,-0.011716
2.839,81.4094,-0.011716
2.870,81.4094,-0.011716
2.901,81.4094,-0.011368
2.933,81.4094,-0.011368
2.964,81.4094,-0.011368
2.995,81.4094,-0.011368
3.026,81.4094,-0.011368
3.058,81.4094,-0.011368
3.088,81.4094,-0.011368
3.120,81.4094,-0.011368
3.150,81.4094,-0.011368
3.181,81.4094,-0.011151
3.211,81.4094,-0.011151
3.245,81.4094,-0.011151
3.273,81.4094,-0.011151
3.308,81.4094,-0.011151
3.335,81.4094,-0.011151
3.366,81.4094,-0.011151
3.398,81.4094,-0.011001
3.429,81.4094,-0.011001
3.460,81.4094,-0.011001
3.491,81.4094,-0.011001
3.523,81.4094,-0.011001
3.554,81.4094,-0.011001
3.585,81.4094,-0.011001
3.616,81.4094,-0.011001
3.647,81.4094,-0.010841
3.679,81.4094,-0.010841
3.710,81.4094,-0.010841
3.742,81.4094,-0.010841
3.771,81.4094,-0.010841
3.802,81.4094,-0.010841
3.833,81.4094,-0.010841
3.866,81.4094,-0.010841
3.897,81.4094,-0.010690
3.929,81.4094,-0.010690
3.960,81.4094,-0.010690
3.992,81.4094,-0.010690
4.023,81.4094,-0.010690
4.054,81.4094,-0.010690
4.084,81.4094,-0.010690
4.115,81.4090,-0.010690
4.146,81.4080,-0.010483
4.178,81.4061,-0.010483
4.208,81.4037,-0.010483
4.239,81.4003,-0.010483
4.270,81.3965,-0.010483
4.300,81.3916,-0.010483
4.331,81.3864,-0.010483
4.361,81.3803,-0.010483
4.392,81.3736,-0.009759
4.423,81.3658,-0.009759
4.454,81.3578,-0.009759
4.484,81.3490,-0.009759
4.516,81.3392,-0.009759
4.546,81.3290,-0.009759
4.576,81.3177,-0.009759
4.608,81.3055,-0.009759
4.640,81.2927,-0.005383
4.671,81.2795,-0.005383
4.702,81.2649,-0.005383
4.733,81.2502,-0.005383
4.764,81.2346,-0.005383
4.797,81.2174,-0.005383
4.826,81.2011,-0.005383
4.859,81.1826,-0.005383
4.888,81.1650,0.002804
4.920,81.1452,0.002804
4.950,81.1255,0.002804
4.981,81.1056,0.002804
5.012,81.0840,0.002804
5.042,81.0626,0.002804
5.074,81.0393,0.002804
5.103,81.0163,0.002804
5.135,80.9923,0.010718
5.166,80.9667,0.010718
5.196,80.9417,0.010718
5.228,80.9148,0.010718
5.259,80.8876,0.010718
5.290,80.8592,0.010718
5.321,80.8309,0.010718
5.352,80.8013,0.010718
5.382,80.7729,0.010718
5.412,80.7425,0.016167
5.443,80.7107,0.016167
5.474,80.6786,0.016167
5.504,80.6461,0.016167
5.536,80.6121,0.016167
5.566,80.5778,0.016167
5.598,80.5434,0.016167
5.629,80.5067,0.016167
5.660,80.4707,0.020317
5.691,80.4325,0.020317
5.721,80.3960,0.020317
5.752,80.3569,0.020317
5.783,80.3175,0.020317
5.814,80.2775,0.020317
5.845,80.2366,0.020317
5.879,80.1906,0.020317
5.907,80.1523,0.020317
5.938,80.1080,0.026490
5.969,80.0658,0.026490
6.000,80.0197,0.026490
6.030,79.9769,0.026490
6.062,79.9300,0.026490
6.094,79.8818,0.026490
6.124,79.8365,0.026490
6.156,79.7885,0.034818
6.186,79.7435,0.034818
6.217,79.6968,0.034818
6.248,79.6510,0.034818
6.279,79.6035,0.034818
6.310,79.5574,0.034818
6.341,79.5107,0.034818
6.373,79.4639,0.034818
6.403,79.4183,0.034818
6.434,79.3721,0.036268
6.466,79.3238,0.036268
6.498,79.2766,0.036268
6.529,79.2291,0.036268
6.560,79.1819,0.036268
6.592,79.1341,0.036268
6.623,79.0889,0.036268
6.653,79.0437,0.022698
6.684,78.9952,0.022698
6.716,78.9480,0.022698
6.747,78.9017,0.022698
6.779,78.8541,0.022698
6.810,78.8072,0.022698
6.839,78.7629,0.022698
6.871,78.7158,0.022698
6.903,78.6679,0.011405
6.934,78.6219,0.011405
6.965,78.5746,0.011405
6.996,78.5283,0.011405
7.028,78.4817,0.011405
7.058,78.4353,0.011405
7.089,78.3893,0.011405
7.121,78.3408,0.011405
7.151,78.2964,0.011405
7.184,78.2459,0.010333
7.213,78.2037,0.010333
7.244,78.1565,0.010333
7.275,78.1098,0.010333
7.305,78.0647,0.010333
7.335,78.0195,0.010333
7.366,77.9733,0.010333
7.399,77.9239,0.010333
7.429,77.8787,0.009533
7.460,77.8312,0.009533
7.492,77.7864,0.009533
7.523,77.7402,0.009533
7.555,77.6939,0.009533
7.585,77.6512,0.009533
7.616,77.6082,0.009533
7.647,77.5672,0.009533
7.678,77.5246,0.008949
7.709,77.4840,0.008949
7.740,77.4437,0.008949
7.772,77.4039,0.008949
7.803,77.3636,0.008949
7.835,77.3258,0.008949
7.867,77.2879,0.008949
7.897,77.2523,0.008328
7.928,77.2171,0.008328
7.958,77.1823,0.008328
7.989,77.1485,0.008328
8.021,77.1139,0.008328
8.052,77.0809,0.008328
8.084,77.0478,0.008328
8.115,77.0161,0.008328
8.146,76.9854,0.007811
8.178,76.9556,0.007811
8.208,76.9278,0.007811
8.239,76.8983,0.007811
8.271,76.8708,0.007811
8.301,76.8439,0.007811
8.332,76.8186,0.007811
8.364,76.7915,0.007811
8.394,76.7678,0.007811
8.426,76.7430,0.007481
8.458,76.7195,0.007481
8.490,76.6958,0.007481
8.520,76.6746,0.007481
8.550,76.6544,0.007481
8.582,76.6338,0.007481
8.612,76.6139,0.007481
8.644,76.5948,0.007114
8.674,76.5768,0.007114
8.706,76.5594,0.007114
8.736,76.5432,0.007114
8.768,76.5268,0.007114
8.799,76.5115,0.007114
8.831,76.4968,0.007114
8.862,76.4828,0.007114
8.893,76.4696,0.006851
8.924,76.4573,0.006851
8.955,76.4459,0.006851
8.985,76.4353,0.006851
9.016,76.4250,0.006851
9.047,76.4156,0.006851
9.079,76.4067,0.006851
9.109,76.3991,0.006851
9.140,76.3917,0.006851
9.170,76.3854,0.006644
9.201,76.3798,0.006644
9.232,76.3746,0.006644
9.263,76.3704,0.006644
9.294,76.3667,0.006644
9.324,76.3638,0.006644
9.355,76.3617,0.006644
9.387,76.3601,0.006644
9.418,76.3595,0.006465
9.451,76.3594,0.006465
9.480,76.3594,0.006465
9.514,76.3594,0.006465
9.542,76.3594,0.006465
9.574,76.3594,0.006465
9.603,76.3594,0.006465
9.634,76.3594,0.006352
9.665,76.3600,0.006352
9.696,76.3615,0.006352
9.727,76.3636,0.006352
9.759,76.3664,0.006352
9.789,76.3700,0.006352
9.819,76.3741,0.006352
9.851,76.3792,0.006352
9.881,76.3849,0.006352
9.912,76.3914,0.006230
9.943,76.3982,0.006230
9.973,76.4063,0.006230
10.005,76.4148,0.006230
10.036,76.4244,0.006230
10.068,76.4345,0.006230
10.099,76.4454,0.006230
10.129,76.4569,0.006230
10.161,76.4696,0.006051
10.192,76.4823,0.006051
10.223,76.4964,0.006051
10.254,76.5104,0.006051
10.285,76.5261,0.006051
10.316,76.5421,0.006051
10.348,76.5592,0.006051
10.378,76.5763,0.006051
10.410,76.5941,0.005919
10.441,76.6132,0.005919
10.472,76.6328,0.005919
10.503,76.6536,0.005919
10.534,76.6746,0.005919
10.565,76.6968,0.005919
10.596,76.7184,0.005919
10.628,76.7421,0.005919
10.660,76.7670,0.005919
10.691,76.7915,0.005778
10.721,76.8166,0.005778
10.752,76.8429,0.005778
10.783,76.8700,0.005778
10.815,76.8979,0.005778
10.846,76.9260,0.005778
10.876,76.9549,0.005778
10.907,76.9854,0.005656
10.939,77.0158,0.005656
10.970,77.0473,0.005656
11.001,77.0792,0.005656
11.032,77.1119,0.005656
11.063,77.1454,0.005656
11.094,77.1805,0.005656
11.125,77.2150,0.005656
11.156,77.2507,0.005580
11.188,77.2879,0.005580
11.219,77.3258,0.005580
11.251,77.3645,0.005580
11.281,77.4014,0.005580
11.312,77.4412,0.005580
11.343,77.4807,0.005580
11.375,77.5235,0.005580
11.407,77.5650,0.005496
11.438,77.6070,0.005496
11.469,77.6502,0.005496
11.500,77.6937,0.005496
11.530,77.7379,0.005496
11.561,77.7828,0.005496
11.593,77.8303,0.005496
11.624,77.8764,0.005496
11.657,77.9273,0.005496
11.686,77.9694,0.005496
11.717,78.0148,0.005307
11.747,78.0611,0.005307
11.777,78.1054,0.005307
11.809,78.1541,0.005307
11.840,78.2002,0.005307
11.874,78.2516,0.005307
11.903,78.2945,0.005307
11.934,78.3418,0.005223
11.965,78.3879,0.005223
11.996,78.4352,0.005223
12.027,78.4809,0.005223
12.059,78.5285,0.005223
12.088,78.5731,0.005223
12.119,78.6194,0.005223
12.151,78.6670,0.005223
12.181,78.7121,0.005147
12.213,78.7596,0.005147
12.243,78.8039,0.005147
12.274,78.8520,0.005147
12.306,78.8996,0.005147
12.337,78.9463,0.005147
12.367,78.9904,0.005147
12.398,79.0379,0.004865
12.430,79.0847,0.004865
12.461,79.1313,0.004865
12.491,79.1762,0.004865
12.521,79.2222,0.004865
12.553,79.2701,0.004865
12.583,79.3150,0.004865
12.615,79.3623,0.004865
12.646,79.4090,0.004319
12.677,79.4555,0.004319
12.708,79.5020,0.004319
12.739,79.5495,0.004319
12.771,79.5975,0.004319
12.802,79.6429,0.004319
12.832,79.6888,0.004319
12.863,79.7348,0.004319
12.894,79.7813,0.003265
12.925,79.8286,0.003265
12.956,79.8756,0.003265
12.987,79.9205,0.003265
13.019,79.9667,0.003265
13.050,80.0116,0.003265
13.081,80.0561,0.003265
13.111,80.0987,0.003265
13.142,80.1400,0.001572
13.173,80.1821,0.001572
13.204,80.2222,0.001572
13.234,80.2629,0.001572
13.266,80.3021,0.001572
13.297,80.3418,0.001572
13.327,80.3786,0.001572
13.358,80.4167,0.001572
13.389,80.4524,-0.000348
13.423,80.4922,-0.000348
13.451,80.5235,-0.000348
13.482,80.5583,-0.000348
13.512,80.5908,-0.000348
13.543,80.6244,-0.000348
13.574,80.6560,-0.000348
13.604,80.6869,-0.000348
13.637,80.7200,-0.002296
13.666,80.7477,-0.002296
13.700,80.7807,-0.002296
13.728,80.8062,-0.002296
13.759,80.8343,-0.002296
13.790,80.8613,-0.002296
13.821,80.8886,-0.002296
13.852,80.9143,-0.002296
13.883,80.9392,-0.002296
13.915,80.9637,-0.004677
13.945,80.9871,-0.004677
13.976,81.0096,-0.004677
14.006,81.0316,-0.004677
14.037,81.0529,-0.004677
14.068,81.0742,-0.004677
14.099,81.0943,-0.004677
14.130,81.1133,-0.004677
14.162,81.1318,-0.007924
14.193,81.1500,-0.007924
14.224,81.1670,-0.007924
14.255,81.1834,-0.007924
14.286,81.1990,-0.007924
14.317,81.2143,-0.007924
14.348,81.2280,-0.007924
14.379,81.2419,-0.007924
14.409,81.2540,-0.012290
14.441,81.2662,-0.012290
14.472,81.2774,-0.012290
14.502,81.2878,-0.012290
14.533,81.2976,-0.012290
14.563,81.3067,-0.012290
14.595,81.3150,-0.012290
14.627,81.3229,-0.012290
14.656,81.3294,-0.016798
14.687,81.3357,-0.016798
14.718,81.3413,-0.016798
14.749,81.3461,-0.016798
14.780,81.3502,-0.016798
14.811,81.3534,-0.016798
14.842,81.3560,-0.016798
14.878,81.3581,-0.016798
14.919,81.3593,-0.016798
14.950,81.3594,-0.019517
14.980,81.3594,-0.019517
15.012,81.3594,-0.019517
15.042,81.3594,-0.019517
15.073,81.3594,-0.019517
15.103,81.3594,-0.019517
15.134,81.3594,-0.019517
15.165,81.3594,-0.019169
15.196,81.3594,-0.019169
15.228,81.3594,-0.019169
15.259,81.3594,-0.019169
15.290,81.3594,-0.019169
15.321,81.3594,-0.019169
15.352,81.3594,-0.019169
15.383,81.3594,-0.019169
15.414,81.3594,-0.017400
15.445,81.3594,-0.017400
15.476,81.3594,-0.017400
15.508,81.3594,-0.017400
15.538,81.3594,-0.017400
15.569,81.3594,-0.017400
15.601,81.3594,-0.017400
15.631,81.3594,-0.017400
15.662,81.3594,-0.016054
15.694,81.3594,-0.016054
15.724,81.3594,-0.016054
15.756,81.3594,-0.016054
15.788,81.3594,-0.016054
15.818,81.3594,-0.016054
15.848,81.3594,-0.016054
15.880,81.3594,-0.016054
15.911,81.3594,-0.015075
15.943,81.3594,-0.015075
15.973,81.3594,-0.015075
16.004,81.3594,-0.015075
16.036,81.3594,-0.015075
16.066,81.3594,-0.015075
16.097,81.3594,-0.015075
16.129,81.3594,-0.015075
16.160,81.3594,-0.014341
16.190,81.3594,-0.014341
16.221,81.3594,-0.014341
16.252,81.3594,-0.014341
16.284,81.3594,-0.014341
16.315,81.3594,-0.014341
16.345,81.3594,-0.014341
16.377,81.3594,-0.014341
16.409,81.3594,-0.013786
16.439,81.3594,-0.013786
16.471,81.3594,-0.013786
16.502,81.3594,-0.013786
16.533,81.3594,-0.013786
16.565,81.3594,-0.013786
16.595,81.3594,-0.013786
16.626,81.3594,-0.013786
16.657,81.3594,-0.013316
16.688,81.3594,-0.013316
16.719,81.3594,-0.013316
16.751,81.3594,-0.013316
16.780,81.3594,-0.013316
16.811,81.3594,-0.013316
16.842,81.3594,-0.013316
16.873,81.3594,-0.013316
16.904,81.3594,-0.012883
16.934,81.3594,-0.012883
16.965,81.3594,-0.012883
16.996,81.3594,-0.012883
17.028,81.3594,-0.012883
17.059,81.3594,-0.012883
17.091,81.3594,-0.012883
17.122,81.3594,-0.012883
17.153,81.3594,-0.012883
17.184,81.3594,-0.012553
17.215,81.3594,-0.012553
17.246,81.3594,-0.012553
17.276,81.3594,-0.012553
17.307,81.3594,-0.012553
17.338,81.3594,-0.012553
17.370,81.3594,-0.012553
17.400,81.3594,-0.012252
17.430,81.3594,-0.012252
17.461,81.3594,-0.012252
17.496,81.3594,-0.012252
17.524,81.3594,-0.012252
17.555,81.3594,-0.012252
17.586,81.3594,-0.012252
17.622,81.3594,-0.012252
17.663,81.3594,-0.012252
17.693,81.3594,-0.011951
17.723,81.3594,-0.011951
17.754,81.3594,-0.011951
17.785,81.3594,-0.011951
17.816,81.3594,-0.011951
17.849,81.3594,-0.011951
17.879,81.3594,-0.011951
17.910,81.3594,-0.011707
17.942,81.3594,-0.011707
17.973,81.3594,-0.011707
18.004,81.3594,-0.011707
18.035,81.3594,-0.011707
18.066,81.3594,-0.011707
18.097,81.3594,-0.011707
18.128,81.3594,-0.011462
18.159,81.3594,-0.011462
18.190,81.3594,-0.011462
18.221,81.3594,-0.011462
18.253,81.3594,-0.011462
18.283,81.3594,-0.011462
18.314,81.3594,-0.011462
18.344,81.3594,-0.011462
18.376,81.3594,-0.011255
18.408,81.3594,-0.011255
18.438,81.3594,-0.011255
18.469,81.3594,-0.011255
18.499,81.3594,-0.011255
18.531,81.3594,-0.011255
18.562,81.3594,-0.011255
18.592,81.3594,-0.011255
18.624,81.3594,-0.011255
18.656,81.3594,-0.011057
18.687,81.3594,-0.011057
18.717,81.3594,-0.011057
18.752,81.3594,-0.011057
18.779,81.3594,-0.011057
18.811,81.3594,-0.011057
18.841,81.3594,-0.011057
18.872,81.3594,-0.011057
18.903,81.3594,-0.010841
18.935,81.3594,-0.010841
18.966,81.3594,-0.010841
18.997,81.3594,-0.010841
19.028,81.3594,-0.010841
19.059,81.3594,-0.010841
19.089,81.3594,-0.010841
19.121,81.3594,-0.010841
19.152,81.3594,-0.010634
19.182,81.3589,-0.010634
19.214,81.3578,-0.010634
19.244,81.3559,-0.010634
19.276,81.3533,-0.010634
19.307,81.3498,-0.010634
19.338,81.3456,-0.010634
19.369,81.3408,-0.010634
19.400,81.3352,-0.010417
19.432,81.3289,-0.010417
19.464,81.3215,-0.010417
19.493,81.3144,-0.010417
19.524,81.3058,-0.010417
19.555,81.2967,-0.010417
19.586,81.2866,-0.010417
19.616,81.2762,-0.010417
19.647,81.2651,-0.007199
19.678,81.2532,-0.007199
19.709,81.2401,-0.007199
19.740,81.2268,-0.007199
19.772,81.2119,-0.007199
19.803,81.1970,-0.007199
19.834,81.1808,-0.007199
19.865,81.1649,-0.007199
19.897,81.1469,0.000386
19.928,81.1294,0.000386
19.958,81.1106,0.000386
19.989,81.0917,0.000386
20.021,81.0710,0.000386
20.051,81.0509,0.000386
20.082,81.0287,0.000386
20.113,81.0068,0.000386
20.144,80.9835,0.000386
20.175,80.9603,0.008799
20.206,80.9360,0.008799
20.236,80.9113,0.008799
20.267,80.8854,0.008799
20.298,80.8586,0.008799
20.329,80.8315,0.008799
20.360,80.8039,0.008799
20.391,80.7744,0.008799
20.421,80.7462,0.008799
20.453,80.7149,0.015066
20.484,80.6833,0.015066
20.514,80.6527,0.015066
20.545,80.6216,0.015066
20.578,80.5850,0.015066
20.607,80.5533,0.015066
20.638,80.5181,0.015066
20.670,80.4834,0.019310
20.700,80.4473,0.019310
20.732,80.4099,0.019310
20.765,80.3704,0.019310
20.793,80.3344,0.019310
20.825,80.2948,0.019310
20.857,80.2547,0.019310
20.887,80.2149,0.019310
20.917,80.1736,0.024938
20.948,80.1330,0.024938
20.980,80.0888,0.024938
21.011,80.0453,0.024938
21.043,80.0000,0.024938
21.074,79.9559,0.024938
21.106,79.9083,0.024938
21.137,79.8619,0.033303
21.168,79.8149,0.033303
21.199,79.7684,0.033303
21.230,79.7215,0.033303
21.260,79.6771,0.033303
21.292,79.6301,0.033303
21.323,79.5826,0.033303
21.354,79.5372,0.033303
21.386,79.4895,0.033303
21.417,79.4428,0.039957
21.448,79.3947,0.039957
21.479,79.3498,0.039957
21.509,79.3043,0.039957
21.540,79.2578,0.039957
21.571,79.2112,0.039957
21.602,79.1650,0.039957
21.632,79.1191,0.039957
21.663,79.0734,0.027365
21.697,79.0219,0.027365
21.725,78.9787,0.027365
21.757,78.9324,0.027365
21.788,78.8865,0.027365
21.819,78.8391,0.027365
21.850,78.7912,0.027365
21.881,78.7464,0.027365
21.912,78.6999,0.011885
21.947,78.6464,0.011885
21.974,78.6073,0.011885
22.005,78.5597,0.011885
22.036,78.5133,0.011885
22.067,78.4679,0.011885
22.097,78.4220,0.011885
22.129,78.3743,0.011885
22.160,78.3282,0.010493
22.191,78.2819,0.010493
22.222,78.2352,0.010493
22.255,78.1852,0.010493
22.284,78.1423,0.010493
22.315,78.0950,0.010493
22.346,78.0492,0.010493
22.378,78.0007,0.010493
22.408,77.9553,0.009721
22.440,77.9079,0.009721
22.471,77.8608,0.009721
22.502,77.8150,0.009721
22.532,77.7689,0.009721
22.569,77.7157,0.009721
22.595,77.6775,0.009721
22.627,77.6326,0.009721
22.656,77.5904,0.009721
22.687,77.5474,0.009053
22.719,77.5055,0.009053
22.749,77.4643,0.009053
22.779,77.4252,0.009053
22.811,77.3837,0.009053
22.841,77.3462,0.009053
22.874,77.3054,0.009053
22.903,77.2701,0.008526
22.933,77.2337,0.008526
22.965,77.1976,0.008526
22.995,77.1625,0.008526
23.026,77.1268,0.008526
23.057,77.0928,0.008526
23.089,77.0592,0.008526
23.119,77.0272,0.008526
23.150,76.9954,0.007942
23.181,76.9632,0.007942
23.212,76.9340,0.007942
23.243,76.9043,0.007942
23.275,76.8747,0.007942
23.304,76.8470,0.007942
23.335,76.8200,0.007942
23.367,76.7922,0.007942
23.398,76.7662,0.007481
23.434,76.7366,0.007481
23.460,76.7161,0.007481
23.491,76.6918,0.007481
23.523,76.6683,0.007481
23.553,76.6457,0.007481
23.584,76.6244,0.007481
23.616,76.6030,0.007481
23.647,76.5820,0.007199
23.678,76.5628,0.007199
23.709,76.5438,0.007199
23.740,76.5254,0.007199
23.771,76.5081,0.007199
23.803,76.4916,0.007199
23.836,76.4745,0.007199
23.865,76.4603,0.007199
23.898,76.4446,0.007199
23.927,76.4322,0.006935
23.959,76.4187,0.006935
23.990,76.4066,0.006935
24.021,76.3946,0.006935
24.052,76.3841,0.006935
24.083,76.3740,0.006935
24.114,76.3646,0.006935
24.145,76.3559,0.006719
24.176,76.3483,0.006719
24.207,76.3410,0.006719
24.238,76.3347,0.006719
24.270,76.3289,0.006719
24.298,76.3241,0.006719
24.331,76.3197,0.006719
24.363,76.3161,0.006719
24.394,76.3134,0.006465
24.424,76.3114,0.006465
24.456,76.3100,0.006465
24.486,76.3094,0.006465
24.518,76.3094,0.006465
24.549,76.3094,0.006465
24.581,76.3094,0.006465
24.612,76.3094,0.006465
24.643,76.3094,0.006465
24.673,76.3095,0.006343
24.704,76.3103,0.006343
24.735,76.3119,0.006343
24.767,76.3141,0.006343
24.798,76.3171,0.006343
24.828,76.3207,0.006343
24.860,76.3251,0.006343
24.891,76.3303,0.006343
24.922,76.3362,0.006220
24.953,76.3430,0.006220
24.984,76.3502,0.006220
25.015,76.3583,0.006220
25.045,76.3668,0.006220
25.077,76.3766,0.006220
25.108,76.3868,0.006220
25.139,76.3979,0.006013
25.170,76.4094,0.006013
25.201,76.4220,0.006013
25.232,76.4354,0.006013
25.263,76.4493,0.006013
25.295,76.4643,0.006013
25.326,76.4797,0.006013
25.357,76.4958,0.006013
25.387,76.5122,0.005853
25.419,76.5305,0.005853
25.451,76.5488,0.005853
25.482,76.5683,0.005853
25.513,76.5874,0.005853
25.544,76.6082,0.005853
25.575,76.6291,0.005853
25.606,76.6516,0.005853
25.636,76.6735,0.005684
25.668,76.6972,0.005684
25.699,76.7214,0.005684
