Elapsed Time (s),Position (mm),Force (N)
-0.011,61.2001,-0.022961
0.020,61.2001,-0.027794
0.053,61.2001,-0.019335
0.082,61.2001,-0.026586
0.113,61.2001,-0.024169
0.144,61.2001,-0.026586
0.176,61.2001,-0.022961
0.206,61.2001,-0.022961
0.237,61.2001,-0.022961
0.268,61.2001,-0.027794
0.300,61.2001,-0.024169
0.331,61.2001,-0.022961
0.362,61.2001,-0.025377
0.394,61.2001,-0.024169
0.425,61.2001,-0.020544
0.445,61.2001,-0.024169
0.475,61.2001,-0.024169
0.504,61.2001,-0.022961
0.534,61.2001,-0.020544
0.565,61.2001,-0.022961
0.599,61.2001,-0.021752
0.619,61.2001,-0.021752
0.643,61.2001,-0.021752
0.674,61.2001,-0.022961
0.704,61.2001,-0.022961
0.736,61.2001,-0.022961
0.767,61.2001,-0.021752
0.798,61.2001,-0.024169
0.828,61.2001,-0.024169
0.859,61.2001,-0.024169
0.893,61.2001,-0.025377
0.921,61.2001,-0.024169
0.953,61.2001,-0.022961
0.983,61.2001,-0.020544
1.014,61.2001,-0.018127
1.035,61.2001,-0.018127
1.060,61.2001,-0.024169
1.092,61.2001,-0.024169
1.125,61.2001,-0.021752
1.155,61.2001,-0.021752
1.186,61.2001,-0.025377
1.216,61.2001,-0.025377
1.247,61.2001,-0.020544
1.280,61.2001,-0.021752
1.310,61.2001,-0.019335
1.342,61.2001,-0.020544
1.373,61.2001,-0.019335
1.404,61.2001,-0.020544
1.436,61.2001,-0.019335
1.467,61.2001,-0.020544
1.498,61.2001,-0.025377
1.529,61.2001,-0.022961
1.561,61.2001,-0.018127
1.592,61.2001,-0.022961
1.623,61.2001,-0.024169
1.655,61.2001,-0.015710
1.686,61.2001,-0.018127
1.707,61.2001,-0.018127
1.733,61.2001,-0.020544
1.762,61.2001,-0.022961
1.792,61.2001,-0.019335
1.824,61.2001,-0.018127
1.855,61.2001,-0.020544
1.886,61.2001,-0.021752
1.916,61.2001,-0.019335
1.948,61.2001,-0.019335
1.979,61.2001,-0.019335
2.010,61.2001,-0.021752
2.041,61.2001,-0.021752
2.072,61.2001,-0.018127
2.103,61.2001,-0.021752
2.134,61.2001,-0.016918
2.155,61.2001,-0.016918
2.180,61.2001,-0.018127
2.211,61.2001,-0.024169
2.242,61.2001,-0.020544
2.273,61.2001,-0.021752
2.304,61.2001,-0.020544
2.334,61.2001,-0.019335
2.366,61.2001,-0.020544
2.398,61.2001,-0.020544
2.428,61.2001,-0.020544
2.459,61.2001,-0.015710
2.490,61.2001,-0.016918
2.521,61.2001,-0.020544
2.553,61.2001,-0.022961
2.583,61.2001,-0.018127
2.615,61.2001,-0.016918
2.645,61.2001,-0.016918
2.667,61.2001,-0.020544
2.691,61.2001,-0.020544
2.722,61.2001,-0.020544
2.752,61.2001,-0.018127
2.784,61.2001,-0.021752
2.815,61.2001,-0.021752
2.847,61.2001,-0.016918
2.878,61.2001,-0.021752
2.910,61.2001,-0.021752
2.939,61.2001,-0.016918
2.970,61.2001,-0.015710
3.000,61.2001,-0.021752
3.031,61.2001,-0.021752
3.062,61.2001,-0.016918
3.094,61.2001,-0.018127
3.117,61.2001,-0.024169
3.140,61.2001,-0.024169
3.172,61.2001,-0.020544
3.202,61.2001,-0.019335
3.226,61.2001,-0.021752
3.248,61.2001,-0.021752
3.279,61.2001,-0.019335
3.311,61.2001,-0.016918
3.341,61.2001,-0.019335
3.372,61.2001,-0.020544
3.404,61.2001,-0.022961
3.435,61.2001,-0.019335
3.467,61.2001,-0.019335
3.498,61.2001,-0.022961
3.529,61.2001,-0.019335
3.560,61.2001,-0.019335
3.591,61.2001,-0.020544
3.622,61.2001,-0.021752
3.654,61.2001,-0.016918
3.685,61.2001,-0.020544
3.705,61.2001,-0.024169
3.731,61.2001,-0.024169
3.762,61.2001,-0.020544
3.794,61.2001,-0.021752
3.824,61.2001,-0.020544
3.854,61.2001,-0.021752
3.886,61.2001,-0.021752
3.917,61.2001,-0.019335
3.949,61.2001,-0.020544
3.980,61.2001,-0.016918
4.012,61.2001,-0.014501
4.043,61.2001,-0.015710
4.075,61.2001,-0.022961
4.106,61.2001,-0.016918
4.136,61.2001,-0.018127
4.166,61.2001,-0.013293
4.197,61.2001,-0.018127
4.228,61.2001,-0.019335
4.249,61.2001,-0.021752
4.275,61.2001,-0.019335
4.296,61.2001,-0.021752
4.321,61.2001,-0.019335
4.351,61.2001,-0.014501
4.383,61.2001,-0.014501
4.413,61.2001,-0.018127
4.446,61.2001,-0.015710
4.477,61.2001,-0.013293
4.508,61.2001,-0.013293
4.539,61.2001,-0.016918
4.571,61.2001,-0.018127
4.602,61.2001,-0.018127
4.632,61.2001,-0.020544
4.663,61.2001,-0.015710
4.694,61.2001,-0.015710
4.724,61.2001,-0.019335
4.746,61.2001,-0.019335
4.771,61.2001,-0.020544
4.792,61.2001,-0.020544
4.817,61.2001,-0.019335
4.849,61.2001,-0.019335
4.881,61.2001,-0.021752
4.911,61.2001,-0.020544
4.941,61.2001,-0.020544
4.973,61.2001,-0.020544
5.005,61.2001,-0.021752
5.035,61.2001,-0.013293
5.067,61.2001,-0.014501
5.098,61.2001,-0.015710
5.129,61.2001,-0.015710
5.150,61.2001,-0.022961
5.174,61.2001,-0.022961
5.206,61.2001,-0.022961
5.237,61.2001,-0.019335
5.268,61.2001,-0.016918
5.299,61.2001,-0.020544
5.320,61.2001,-0.022961
5.346,61.2001,-0.022961
5.377,61.2001,-0.020544
5.411,61.2001,-0.015710
5.432,61.2001,-0.015710
5.455,61.2001,-0.021752
5.486,61.2001,-0.018127
5.517,61.2001,-0.013293
5.548,61.2001,-0.016918
5.578,61.2001,-0.025377
5.609,61.2001,-0.025377
5.640,61.2001,-0.021752
5.671,61.2001,-0.019335
5.702,61.2001,-0.019335
5.733,61.2001,-0.016918
5.756,61.2001,-0.020544
5.779,61.2001,-0.019335
5.800,61.2001,-0.020544
5.826,61.2001,-0.020544
5.857,61.2001,-0.016918
5.889,61.2001,-0.016918
5.919,61.2001,-0.020544
5.951,61.2001,-0.018127
5.981,61.2001,-0.019335
6.012,61.2001,-0.018127
6.043,61.2001,-0.016918
6.074,61.2001,-0.018127
6.105,61.2001,-0.019335
6.136,61.2001,-0.016918
6.166,61.2001,-0.014501
6.198,61.2001,-0.019335
6.229,61.2001,-0.018127
6.260,61.2001,-0.018127
6.290,61.2001,-0.015710
6.311,61.2001,-0.016918
6.338,61.2001,-0.014501
6.359,61.2001,-0.014501
6.384,61.2001,-0.013293
6.416,61.2001,-0.021752
6.446,61.2001,-0.016918
6.470,61.2001,-0.016918
6.493,61.2001,-0.016918
6.524,61.2001,-0.015710
6.555,61.2001,-0.013293
6.586,61.2001,-0.016918
6.617,61.2001,-0.022961
6.649,61.2001,-0.012084
6.681,61.2001,-0.020544
6.713,61.2001,-0.016918
6.743,61.2001,-0.016918
6.775,61.2001,-0.014501
6.806,61.2001,-0.018127
6.837,61.2001,-0.024169
6.870,61.2001,-0.021752
6.900,61.2001,-0.020544
6.925,61.2001,-0.021752
6.947,61.2001,-0.022961
6.977,61.2001,-0.020544
6.998,61.2001,-0.020544
7.023,61.2001,-0.021752
7.044,61.2001,-0.018127
7.070,61.2001,-0.018127
7.101,61.2001,-0.018127
7.131,61.2001,-0.020544
7.163,61.2001,-0.019335
7.194,61.2001,-0.020544
7.226,61.2001,-0.018127
7.257,61.2001,-0.015710
7.288,61.2001,-0.015710
7.320,61.2001,-0.015710
7.351,61.2001,-0.015710
7.383,61.2001,-0.018127
7.414,61.2001,-0.022961
7.444,61.2001,-0.018127
7.476,61.2001,-0.016918
7.507,61.2001,-0.019335
7.539,61.2001,-0.021752
7.570,61.2001,-0.018127
7.602,61.2001,-0.018127
7.631,61.2001,-0.021752
7.663,61.2001,-0.014501
7.694,61.2001,-0.014501
7.714,61.2001,-0.015710
7.735,61.2001,-0.016918
7.756,61.2001,-0.016918
7.789,61.2001,-0.015710
7.811,61.2001,-0.014501
7.836,61.2001,-0.014501
7.869,61.2001,-0.019335
7.890,61.2001,-0.019335
7.914,61.2001,-0.018127
7.943,61.2001,-0.018127
7.974,61.2001,-0.016918
8.005,61.2001,-0.016918
8.037,61.2001,-0.012084
8.068,61.2001,-0.013293
8.100,61.2001,-0.016918
8.131,61.2001,-0.016918
8.155,61.2001,-0.016918
8.178,61.2001,-0.016918
8.209,61.2001,-0.019335
8.240,61.2001,-0.016918
8.270,61.2001,-0.016918
8.302,61.2001,-0.018127
8.334,61.2001,-0.016918
8.365,61.2001,-0.014501
8.396,61.2001,-0.016918
8.426,61.2001,-0.016918
8.458,61.2001,-0.016918
8.480,61.2001,-0.016918
8.505,61.2001,-0.018127
8.536,61.2001,-0.019335
8.567,61.2001,-0.019335
8.587,61.2001,-0.020544
8.613,61.2001,-0.018127
8.644,61.2001,-0.016918
8.675,61.2001,-0.021752
8.697,61.2001,-0.021752
8.721,61.2001,-0.021752
8.752,61.2001,-0.015710
8.782,61.2001,-0.016918
8.813,61.2001,-0.018127
8.845,61.2001,-0.020544
8.877,61.2001,-0.016918
8.907,61.2001,-0.018127
8.939,61.2001,-0.014501
8.970,61.2001,-0.014501
9.002,61.2001,-0.018127
9.033,61.2001,-0.016918
9.064,61.2001,-0.013293
9.095,61.2001,-0.016918
9.126,61.2001,-0.018127
9.157,61.2001,-0.015710
9.188,61.2001,-0.015710
9.209,61.2001,-0.018127
9.239,61.2001,-0.014501
9.266,61.2001,-0.014501
9.287,61.2001,-0.014501
9.312,61.2001,-0.016918
9.343,61.2001,-0.018127
9.374,61.2001,-0.018127
9.406,61.2001,-0.015710
9.436,61.2001,-0.010876
9.467,61.2001,-0.016918
9.498,61.2001,-0.015710
9.529,61.2001,-0.015710
9.560,61.2001,-0.016918
9.590,61.2001,-0.020544
9.622,61.2001,-0.015710
9.654,61.2001,-0.014501
9.686,61.2001,-0.016918
9.717,61.2001,-0.021752
9.747,61.2001,-0.016918
9.777,61.2001,-0.013293
9.798,61.2001,-0.013293
9.825,61.2001,-0.018127
9.848,61.2001,-0.015710
9.870,61.2001,-0.012084
9.901,61.2001,-0.014501
9.933,61.2001,-0.016918
9.963,61.2001,-0.015710
9.995,61.2001,-0.018127
10.027,61.2001,-0.020544
10.057,61.2001,-0.014501
10.088,61.2001,-0.014501
10.118,61.2001,-0.010876
10.149,61.2001,-0.014501
10.180,61.2001,-0.013293
10.211,61.2001,-0.016918
10.242,61.2001,-0.016918
10.262,61.2001,-0.018127
10.288,61.2001,-0.018127
10.319,61.2001,-0.013293
10.349,61.2001,-0.014501
10.381,61.2001,-0.016918
10.411,61.2001,-0.014501
10.442,61.2001,-0.013293
10.473,61.2001,-0.015710
10.505,61.2001,-0.014501
10.536,61.2001,-0.014501
10.567,61.2001,-0.014501
10.598,61.2001,-0.015710
10.630,61.2001,-0.015710
10.660,61.2001,-0.014501
10.692,61.2001,-0.014501
10.723,61.2001,-0.015710
10.755,61.2001,-0.010876
10.785,61.2001,-0.012084
10.806,61.2001,-0.013293
10.832,61.2001,-0.013293
10.864,61.2001,-0.013293
10.894,61.2001,-0.015710
10.926,61.2001,-0.015710
10.956,61.2001,-0.019335
10.987,61.2001,-0.019335
11.017,61.2001,-0.014501
11.048,61.2001,-0.018127
11.081,61.2001,-0.015710
11.111,61.2001,-0.015710
11.142,60.9248,-0.014501
11.172,60.5138,0.072507
11.203,60.0835,0.036253
11.234,59.6739,0.106343
11.254,59.3863,0.148639
11.281,59.0273,0.203019
11.302,58.7423,0.319030
11.327,58.3902,0.319030
11.357,57.9792,0.399996
11.379,57.6833,0.399996
11.404,57.3285,0.036253
11.426,57.0298,0.004834
11.450,56.7119,0.004834
11.481,56.2900,0.002417
11.513,55.8393,0.000000
11.543,55.4310,-0.003625
11.575,55.1501,-0.003625
11.607,55.1501,-0.032628
11.639,55.1501,-0.003625
11.669,55.1501,-0.003625
11.701,55.1501,-0.002417
11.732,55.1501,-0.003625
11.764,55.1501,0.002417
11.794,55.1501,-0.003625
11.825,55.1501,-0.003625
11.856,55.1501,0.002417
11.887,55.1501,0.003625
11.918,55.1501,-0.006042
11.941,55.1501,-0.006042
11.965,55.1501,0.001208
11.988,55.1509,0.000000
12.011,55.3899,-0.007251
12.042,55.8187,-0.074924
12.073,56.2448,-0.001208
12.104,56.6612,0.002417
12.134,57.0791,0.001208
12.167,57.5340,0.000000
12.197,57.9464,0.003625
12.229,58.3696,0.002417
12.260,58.7943,-0.003625
12.290,59.2162,-0.002417
12.321,59.6410,-0.007251
12.353,60.0794,-0.013293
12.384,60.5000,-0.029003
12.418,60.9754,-0.041087
12.448,61.1501,-0.041087
12.476,61.1501,-0.033837
12.507,61.1501,-0.054380
12.538,61.1501,-0.050755
12.560,61.1501,-0.050755
12.584,61.1501,-0.044713
12.616,61.1501,-0.045921
12.647,61.1501,-0.045921
12.678,61.1501,-0.037462
12.709,61.1501,-0.033837
12.741,61.1501,-0.036253
12.771,61.1501,-0.033837
12.802,61.1501,-0.033837
12.833,61.1501,-0.030211
12.864,61.1501,-0.029003
12.895,61.1501,-0.030211
12.929,61.1501,-0.030211
12.958,61.1501,-0.033837
12.989,61.1501,-0.035045
13.020,61.1501,-0.033837
13.051,61.1501,-0.029003
13.082,61.1501,-0.029003
13.112,61.1501,-0.030211
13.144,61.1501,-0.029003
13.174,61.1501,-0.026586
13.205,61.1501,-0.025377
13.236,61.1501,-0.026586
13.268,61.1501,-0.030211
13.299,61.1501,-0.026586
13.330,61.1501,-0.030211
13.362,61.1501,-0.026586
13.393,61.1501,-0.025377
13.424,61.1501,-0.024169
13.455,61.1501,-0.025377
13.486,61.1501,-0.026586
13.517,61.1501,-0.025377
13.547,61.1501,-0.029003
13.578,61.1501,-0.021752
13.599,61.1501,-0.021752
13.624,61.1501,-0.025377
13.656,61.1501,-0.022961
13.687,61.1501,-0.026586
13.719,61.1501,-0.027794
13.750,61.1501,-0.020544
13.781,61.1501,-0.029003
13.814,61.1501,-0.030211
13.844,61.1501,-0.025377
13.877,61.1501,-0.020544
13.907,61.1501,-0.022961
13.938,61.1501,-0.022961
13.970,61.1501,-0.022961
14.001,61.1501,-0.027794
14.032,61.1501,-0.027794
14.062,61.1501,-0.026586
14.094,61.1501,-0.018127
14.125,61.1501,-0.019335
14.156,61.1501,-0.027794
14.188,61.1501,-0.024169
14.218,61.1501,-0.021752
14.238,61.1501,-0.021752
14.265,61.1501,-0.021752
14.297,61.1501,-0.021752
14.329,61.1501,-0.024169
14.351,61.1501,-0.021752
14.378,61.1501,-0.026586
14.399,61.1501,-0.026586
14.423,61.1501,-0.025377
14.453,61.1501,-0.016918
14.483,61.1501,-0.019335
14.515,61.1501,-0.026586
14.545,61.1501,-0.027794
14.577,61.1501,-0.025377
14.608,61.1501,-0.024169
14.629,61.1501,-0.027794
14.655,61.1501,-0.026586
14.687,61.1501,-0.020544
14.718,61.1501,-0.021752
14.748,61.1501,-0.021752
14.778,61.1501,-0.020544
14.809,61.1501,-0.020544
14.845,61.1501,-0.018127
14.872,61.1501,-0.019335
14.903,61.1501,-0.020544
14.934,61.1501,-0.016918
14.965,61.1501,-0.018127
14.995,61.1501,-0.018127
15.026,61.1501,-0.019335
15.058,61.1501,-0.022961
15.088,61.1501,-0.022961
15.109,61.1501,-0.019335
15.135,61.1501,-0.020544
15.166,61.1501,-0.024169
15.198,61.1501,-0.021752
15.228,61.1501,-0.021752
15.259,61.1501,-0.024169
15.289,61.1501,-0.020544
15.321,61.1501,-0.021752
15.353,61.1501,-0.018127
15.386,61.1501,-0.020544
15.414,61.1501,-0.021752
15.445,61.1501,-0.020544
15.466,61.1501,-0.019335
15.493,61.1501,-0.020544
15.523,61.1501,-0.022961
15.554,61.1501,-0.025377
15.585,61.1501,-0.022961
15.616,61.1501,-0.021752
15.637,61.1501,-0.021752
15.662,61.1501,-0.021752
15.693,61.1501,-0.021752
15.716,61.1501,-0.018127
15.739,61.1501,-0.018127
15.770,61.1501,-0.024169
15.801,61.1501,-0.021752
15.832,61.1501,-0.020544
15.864,61.1501,-0.020544
15.894,61.1501,-0.022961
15.925,61.1501,-0.022961
15.956,61.1501,-0.021752
15.986,61.1501,-0.020544
16.018,61.1501,-0.022961
16.050,61.1501,-0.020544
16.082,61.1501,-0.018127
16.113,61.1501,-0.024169
16.147,61.1501,-0.019335
16.175,61.1501,-0.019335
16.196,61.1501,-0.019335
16.222,61.1501,-0.019335
16.253,61.1501,-0.018127
16.284,61.1501,-0.019335
16.315,61.1501,-0.021752
16.347,61.1501,-0.021752
16.377,61.1501,-0.022961
16.408,61.1501,-0.019335
16.439,61.1501,-0.022961
16.470,61.1501,-0.022961
16.501,61.1501,-0.018127
16.532,61.1501,-0.020544
16.563,61.1501,-0.022961
16.594,61.1501,-0.018127
16.624,61.1501,-0.016918
16.656,61.1501,-0.021752
16.686,61.1501,-0.021752
16.708,61.1501,-0.021752
16.733,61.1501,-0.021752
16.765,61.1501,-0.019335
16.795,61.1501,-0.021752
16.827,61.1501,-0.022961
16.858,61.1501,-0.020544
16.890,61.1501,-0.015710
16.920,61.1501,-0.022961
16.952,61.1501,-0.024169
16.982,61.1501,-0.016918
17.013,61.1501,-0.019335
17.044,61.1501,-0.021752
17.075,61.1501,-0.018127
17.106,61.1501,-0.020544
17.136,61.1501,-0.020544
17.166,61.1501,-0.025377
17.187,61.1501,-0.022961
17.213,61.1501,-0.019335
17.244,61.1501,-0.021752
17.275,61.1501,-0.022961
17.305,61.1501,-0.021752
17.337,61.1501,-0.016918
17.370,61.1501,-0.021752
17.399,61.1501,-0.019335
17.430,61.1501,-0.016918
17.460,61.1501,-0.020544
17.491,61.1501,-0.018127
17.521,61.1501,-0.020544
17.553,61.1501,-0.019335
17.584,61.1501,-0.021752
17.615,61.1501,-0.019335
17.637,61.1501,-0.018127
17.661,61.1501,-0.018127
17.693,61.1501,-0.016918
17.724,61.1501,-0.021752
17.754,61.1501,-0.020544
17.785,61.1501,-0.020544
17.816,61.1501,-0.018127
17.847,61.1501,-0.022961
17.877,61.1501,-0.021752
17.909,61.1501,-0.021752
17.939,61.1501,-0.024169
17.970,61.1501,-0.024169
18.002,61.1501,-0.020544
18.033,61.1501,-0.020544
18.065,61.1501,-0.019335
18.096,61.1501,-0.022961
18.128,61.1501,-0.021752
18.159,61.1501,-0.019335
18.190,61.1501,-0.016918
18.210,61.1501,-0.016918
18.237,61.1501,-0.020544
18.267,61.1501,-0.018127
18.297,61.1501,-0.016918
18.328,61.1501,-0.020544
18.358,61.1501,-0.019335
18.390,61.1501,-0.016918
18.421,61.1501,-0.021752
18.453,61.1501,-0.020544
18.484,61.1501,-0.018127
18.515,61.1501,-0.021752
18.545,61.1501,-0.018127
18.577,61.1501,-0.014501
18.607,61.1501,-0.018127
18.638,61.1501,-0.018127
18.659,61.1501,-0.018127
18.685,61.1501,-0.020544
18.707,61.1501,-0.020544
18.730,61.1501,-0.025377
18.761,61.1501,-0.024169
18.793,61.1501,-0.016918
18.823,61.1501,-0.015710
18.855,61.1501,-0.018127
18.885,61.1501,-0.018127
18.916,61.1501,-0.016918
18.948,61.1501,-0.014501
18.978,61.1501,-0.016918
19.011,61.1501,-0.019335
19.041,61.1501,-0.016918
19.072,61.1501,-0.015710
19.103,61.1501,-0.014501
19.134,61.1501,-0.016918
19.154,61.1501,-0.019335
19.180,61.1501,-0.018127
19.211,61.1501,-0.016918
19.243,61.1501,-0.021752
19.274,61.1501,-0.018127
19.304,61.1501,-0.014501
19.336,61.1501,-0.021752
19.367,61.1501,-0.021752
19.399,61.1501,-0.018127
19.430,61.1501,-0.018127
19.461,61.1501,-0.016918
19.492,61.1501,-0.019335
19.524,61.1501,-0.020544
19.555,61.1501,-0.019335
19.587,61.1501,-0.015710
19.617,61.1501,-0.015710
19.647,61.1501,-0.019335
19.679,61.1501,-0.021752
19.711,61.1501,-0.019335
19.743,61.1501,-0.014501
19.774,61.1501,-0.019335
19.806,61.1501,-0.021752
19.836,61.1501,-0.021752
19.867,61.1501,-0.022961
19.897,61.1501,-0.021752
19.931,61.1501,-0.015710
19.960,61.1501,-0.018127
19.991,61.1501,-0.016918
20.022,61.1501,-0.018127
20.055,61.1501,-0.019335
20.085,61.1501,-0.019335
20.116,61.1501,-0.013293
20.147,61.1501,-0.015710
20.179,61.1501,-0.016918
20.209,61.1501,-0.016918
20.240,61.1501,-0.018127
20.271,61.1501,-0.022961
20.301,61.1501,-0.015710
20.322,61.1501,-0.016918
20.347,61.1501,-0.016918
20.379,61.1501,-0.020544
20.410,61.1501,-0.020544
20.441,61.1501,-0.020544
20.473,61.1501,-0.020544
20.504,61.1501,-0.020544
20.535,61.1501,-0.022961
20.566,61.1501,-0.020544
20.597,61.1501,-0.018127
20.629,61.1501,-0.020544
20.661,61.1501,-0.013293
20.692,61.1501,-0.015710
20.722,61.1501,-0.019335
20.753,61.1501,-0.018127
20.784,61.1501,-0.016918
20.816,61.1501,-0.014501
20.846,61.1501,-0.014501
20.877,61.1501,-0.013293
20.898,61.1501,-0.013293
20.925,61.1501,-0.012084
20.945,61.1501,-0.018127
20.971,61.1501,-0.015710
21.002,61.1501,-0.014501
21.033,61.1501,-0.014501
21.064,61.1501,-0.016918
21.085,61.1501,-0.014501
21.110,61.1501,-0.014501
21.141,61.1501,-0.013293
21.172,61.1501,-0.015710
21.204,61.1501,-0.020544
21.233,61.1501,-0.020544
21.264,61.1501,-0.016918
21.294,61.1501,-0.014501
21.326,61.1501,-0.014501
21.356,61.1501,-0.016918
21.388,61.1501,-0.018127
21.419,61.1501,-0.014501
21.450,61.1501,-0.015710
21.481,61.1501,-0.015710
21.501,61.1501,-0.020544
21.528,61.1501,-0.018127
21.549,61.1501,-0.013293
21.574,61.1501,-0.013293
21.605,61.1501,-0.015710
21.636,61.1501,-0.015710
21.667,61.1501,-0.016918
21.698,61.1501,-0.016918
21.729,61.1501,-0.014501
21.761,61.1501,-0.015710
21.792,61.1501,-0.015710
21.822,61.1501,-0.013293
21.855,61.1501,-0.015710
21.885,61.1501,-0.018127
21.915,61.1501,-0.013293
21.947,61.1501,-0.013293
21.978,61.1501,-0.018127
22.009,61.1501,-0.015710
22.029,61.1501,-0.013293
22.057,61.1501,-0.018127
22.086,61.1501,-0.018127
22.117,61.1501,-0.018127
22.147,61.1501,-0.020544
22.180,61.1501,-0.018127
22.210,61.1501,-0.012084
22.240,61.1501,-0.019335
22.272,61.1501,-0.014501
22.302,61.1501,-0.015710
22.334,61.1501,-0.018127
22.366,61.1501,-0.019335
22.397,61.1501,-0.015710
22.428,61.1501,-0.016918
22.459,61.1501,-0.015710
22.491,61.1501,-0.013293
22.522,61.1501,-0.013293
22.553,61.1501,-0.014501
22.585,61.1501,-0.015710
22.617,61.1501,-0.013293
22.647,61.1501,-0.013293
22.678,61.1501,-0.018127
22.710,61.1501,-0.019335
22.732,61.1501,-0.018127
22.757,61.1501,-0.014501
22.790,61.1501,-0.020544
22.812,61.1501,-0.018127
22.837,61.1501,-0.012084
22.868,61.1501,-0.013293
22.898,61.1501,-0.014501
22.930,61.1501,-0.013293
22.961,61.1501,-0.014501
22.993,61.1501,-0.012084
23.024,61.1501,-0.019335
23.054,61.1501,-0.016918
23.086,61.1501,-0.014501
23.117,61.1501,-0.015710
23.148,61.1501,-0.018127
23.179,61.1501,-0.012084
23.209,61.1501,-0.015710
23.240,61.1501,-0.015710
23.271,61.1501,-0.016918
23.291,61.1501,-0.016918
23.317,61.1501,-0.015710
23.348,61.1501,-0.019335
23.379,61.1501,-0.019335
23.411,61.1501,-0.014501
23.441,61.1501,-0.016918
23.471,61.1501,-0.014501
23.502,61.1501,-0.014501
23.534,61.1501,-0.014501
23.566,61.1501,-0.013293
23.597,61.1501,-0.016918
23.628,61.1501,-0.016918
23.659,61.1501,-0.015710
23.690,61.1501,-0.014501
23.721,61.1501,-0.019335
23.752,61.1501,-0.016918
23.783,61.1501,-0.016918
23.803,61.1501,-0.016918
23.829,61.1501,-0.016918
23.860,61.1501,-0.015710
23.891,61.1501,-0.015710
23.923,61.1501,-0.016918
23.953,61.1494,-0.020544
23.984,60.8186,-0.018127
24.016,60.3911,0.068882
24.047,59.9569,0.036253
24.078,59.5418,0.154681
