Elapsed Time (s),Position (mm),Force (N)
-0.008,53.7000,-0.025377
0.025,53.7000,-0.025377
0.055,53.7000,-0.025377
0.086,53.7000,-0.025377
0.117,53.7000,-0.027794
0.148,53.7000,-0.026586
0.179,53.7000,-0.026586
0.211,53.7000,-0.026586
0.244,53.7000,-0.030211
0.274,53.7000,-0.030211
0.304,53.7000,-0.026586
0.334,53.7000,-0.022961
0.366,53.7000,-0.022961
0.400,53.7000,-0.024169
0.427,53.7000,-0.022961
0.458,53.7000,-0.022961
0.490,53.7000,-0.024169
0.510,53.7000,-0.020544
0.537,53.7000,-0.024169
0.568,53.7000,-0.026586
0.599,53.7000,-0.030211
0.632,53.7000,-0.026586
0.661,53.7000,-0.024169
0.693,53.7000,-0.021752
0.723,53.7000,-0.020544
0.754,53.7000,-0.018127
0.786,53.7000,-0.018127
0.817,53.7000,-0.019335
0.848,53.7000,-0.020544
0.879,53.7000,-0.018127
0.910,53.7000,-0.020544
0.942,53.7000,-0.021752
0.972,53.7000,-0.022961
1.004,53.7000,-0.024169
1.035,53.7000,-0.024169
1.066,53.7000,-0.021752
1.088,53.7000,-0.021752
1.114,53.7000,-0.020544
1.134,53.7000,-0.019335
1.160,53.7000,-0.022961
1.191,53.7000,-0.025377
1.222,53.7000,-0.015710
1.252,53.7000,-0.022961
1.284,53.7000,-0.020544
1.315,53.7000,-0.025377
1.345,53.7000,-0.021752
1.378,53.7000,-0.022961
1.410,53.7000,-0.020544
1.441,53.7000,-0.015710
1.471,53.7000,-0.015710
1.502,53.7000,-0.024169
1.524,53.7000,-0.022961
1.548,53.7000,-0.022961
1.580,53.7000,-0.019335
1.611,53.7000,-0.015710
1.642,53.7000,-0.025377
1.675,53.7000,-0.021752
1.706,53.7000,-0.019335
1.738,53.7000,-0.018127
1.768,53.7000,-0.020544
1.798,53.7000,-0.021752
1.829,53.7000,-0.021752
1.860,53.7000,-0.016918
1.892,53.7000,-0.016918
1.923,53.7000,-0.018127
1.953,53.7000,-0.016918
1.984,53.7000,-0.021752
2.015,53.7000,-0.019335
2.035,53.7000,-0.016918
2.061,53.7000,-0.021752
2.083,53.7000,-0.022961
2.109,53.7000,-0.022961
2.139,53.7000,-0.022961
2.170,53.7000,-0.020544
2.202,53.7000,-0.020544
2.232,53.7000,-0.016918
2.262,53.7000,-0.018127
2.294,53.7000,-0.020544
2.325,53.7000,-0.021752
2.356,53.7000,-0.020544
2.386,53.7000,-0.018127
2.418,53.7000,-0.020544
2.448,53.7000,-0.020544
2.480,53.7000,-0.016918
2.511,53.7000,-0.018127
2.540,53.7000,-0.018127
2.573,53.7000,-0.015710
2.594,53.7000,-0.015710
2.618,53.7000,-0.016918
2.640,53.7000,-0.016918
2.664,53.7000,-0.019335
2.695,53.7000,-0.019335
2.726,53.7000,-0.020544
2.757,53.7000,-0.021752
2.788,53.7000,-0.016918
2.819,53.7000,-0.018127
2.851,53.7000,-0.018127
2.881,53.7000,-0.018127
2.914,53.7000,-0.016918
2.944,53.7000,-0.020544
2.975,53.7000,-0.020544
3.006,53.7000,-0.016918
3.036,53.7000,-0.016918
3.067,53.7000,-0.016918
3.088,53.7000,-0.016918
3.114,53.7000,-0.018127
3.135,53.7000,-0.019335
3.161,53.7000,-0.020544
3.191,53.7000,-0.021752
3.222,53.7000,-0.020544
3.253,53.7000,-0.020544
3.284,53.7000,-0.021752
3.317,53.7000,-0.015710
3.348,53.7000,-0.016918
3.378,53.7000,-0.016918
3.410,53.7000,-0.020544
3.441,53.7000,-0.014501
3.472,53.7000,-0.018127
3.505,53.7000,-0.016918
3.535,53.7000,-0.012084
3.565,53.7000,-0.015710
3.596,53.7000,-0.018127
3.628,53.7000,-0.021752
3.658,53.7000,-0.019335
3.689,53.7000,-0.018127
3.720,53.7000,-0.020544
3.741,53.7000,-0.018127
3.767,53.7000,-0.018127
3.798,53.7000,-0.015710
3.829,53.7000,-0.018127
3.859,53.7000,-0.018127
3.890,53.7000,-0.020544
3.921,53.7000,-0.018127
3.953,53.7000,-0.015710
3.984,53.7000,-0.018127
4.016,53.7000,-0.018127
4.047,53.7000,-0.018127
4.078,53.7000,-0.018127
4.108,53.7000,-0.016918
4.138,53.7000,-0.015710
4.170,53.7000,-0.019335
4.202,53.7000,-0.014501
4.233,53.7000,-0.019335
4.264,53.7000,-0.018127
4.285,53.7000,-0.019335
4.310,53.7000,-0.016918
4.340,53.7000,-0.016918
4.371,53.7000,-0.020544
4.402,53.7000,-0.020544
4.433,53.7000,-0.019335
4.464,53.7000,-0.015710
4.495,53.7000,-0.021752
4.526,53.7000,-0.020544
4.558,53.7000,-0.015710
4.589,53.7000,-0.019335
4.620,53.7000,-0.018127
4.652,53.7000,-0.019335
4.683,53.7000,-0.016918
4.714,53.7000,-0.014501
4.745,53.7000,-0.018127
4.776,53.7000,-0.016918
4.796,53.7000,-0.019335
4.822,53.7000,-0.019335
4.853,53.7000,-0.015710
4.883,53.7000,-0.019335
4.915,53.7000,-0.015710
4.946,53.7000,-0.014501
4.977,53.7000,-0.022961
5.008,53.7000,-0.022961
5.038,53.7000,-0.016918
5.069,53.7000,-0.016918
5.100,53.7000,-0.016918
5.131,53.7000,-0.014501
5.162,53.7000,-0.015710
5.193,53.7000,-0.019335
5.226,53.7000,-0.019335
5.255,53.7000,-0.013293
5.276,53.7000,-0.012084
5.301,53.7000,-0.016918
5.332,53.7000,-0.016918
5.363,53.7000,-0.015710
5.394,53.7000,-0.018127
5.425,53.7000,-0.021752
5.457,53.7000,-0.018127
5.488,53.7000,-0.015710
5.519,53.7000,-0.019335
5.550,53.7000,-0.019335
5.581,53.7000,-0.016918
5.613,53.7000,-0.014501
5.643,53.7000,-0.016918
5.674,53.7000,-0.019335
5.704,53.7000,-0.019335
5.736,53.7000,-0.015710
5.757,53.7000,-0.016918
5.782,53.7000,-0.018127
5.812,53.7000,-0.018127
5.843,53.7000,-0.018127
5.874,53.7000,-0.015710
5.905,53.7000,-0.015710
5.936,53.7000,-0.015710
5.966,53.7000,-0.015710
5.997,53.7000,-0.016918
6.028,53.7000,-0.016918
6.059,53.7000,-0.016918
6.090,53.7000,-0.016918
6.122,53.7000,-0.018127
6.153,53.7000,-0.015710
6.183,53.7000,-0.016918
6.204,53.7000,-0.018127
6.229,53.7000,-0.018127
6.261,53.7000,-0.016918
6.291,53.7000,-0.010876
6.323,53.7000,-0.018127
6.354,53.7000,-0.018127
6.385,53.7000,-0.015710
6.416,53.7000,-0.015710
6.448,53.7000,-0.014501
6.479,53.7000,-0.021752
6.510,53.7000,-0.021752
6.541,53.7000,-0.013293
6.573,53.7000,-0.015710
6.604,53.7000,-0.019335
6.635,53.7000,-0.016918
6.666,53.7000,-0.014501
6.698,53.7000,-0.019335
6.730,53.7000,-0.014501
6.761,53.7000,-0.016918
6.792,53.7000,-0.019335
6.813,53.7000,-0.019335
6.837,53.7000,-0.015710
6.869,53.7000,-0.016918
6.899,53.7000,-0.015710
6.930,53.7000,-0.016918
6.950,53.7000,-0.016918
6.976,53.7000,-0.015710
7.006,53.7000,-0.013293
7.038,53.7000,-0.018127
7.069,53.7000,-0.016918
7.099,53.7000,-0.012084
7.131,53.7000,-0.016918
7.162,53.7000,-0.019335
7.194,53.7000,-0.016918
7.225,53.7000,-0.015710
7.255,53.7000,-0.019335
7.286,53.7000,-0.016918
7.318,53.7000,-0.015710
7.348,53.7000,-0.013293
7.379,53.7000,-0.018127
7.411,53.7000,-0.015710
7.441,53.7000,-0.015710
7.463,53.7000,-0.018127
7.488,53.7000,-0.018127
7.519,53.7000,-0.019335
7.551,53.7000,-0.019335
7.582,53.7000,-0.018127
7.613,53.7000,-0.019335
7.644,53.7000,-0.019335
7.675,53.7000,-0.012084
7.708,53.7000,-0.015710
7.738,53.7000,-0.014501
7.770,53.7000,-0.019335
7.801,53.7000,-0.016918
7.832,53.7000,-0.016918
7.863,53.7000,-0.016918
7.894,53.7000,-0.016918
7.925,53.7000,-0.015710
7.956,53.7000,-0.016918
7.987,53.7000,-0.016918
8.018,53.7000,-0.013293
8.038,53.7000,-0.013293
8.064,53.7000,-0.018127
8.095,53.7000,-0.018127
8.127,53.7000,-0.015710
8.156,53.7000,-0.016918
8.188,53.7000,-0.016918
8.219,53.7000,-0.013293
8.250,53.7000,-0.010876
8.282,53.7000,-0.014501
8.313,53.7000,-0.018127
8.343,53.7000,-0.016918
8.376,53.7000,-0.015710
8.405,53.7000,-0.020544
8.437,53.7000,-0.019335
8.469,53.7000,-0.015710
8.500,53.7000,-0.020544
8.531,53.7000,-0.022961
8.563,53.7000,-0.015710
8.594,53.7000,-0.015710
8.617,53.7000,-0.014501
8.642,53.7000,-0.018127
8.672,53.7000,-0.015710
8.703,53.7000,-0.014501
8.734,53.7000,-0.015710
8.765,53.7000,-0.014501
8.797,53.7000,-0.013293
8.828,53.7000,-0.009668
8.859,53.7000,-0.018127
8.889,53.7000,-0.016918
8.920,53.7000,-0.014501
8.952,53.7000,-0.013293
8.983,53.7000,-0.015710
9.016,53.7000,-0.015710
9.046,53.7000,-0.012084
9.076,53.7000,-0.018127
9.108,53.7000,-0.019335
9.139,53.7000,-0.012084
9.170,53.7000,-0.012084
9.201,53.7000,-0.015710
9.232,53.7000,-0.014501
9.263,53.7000,-0.013293
9.294,53.7000,-0.013293
9.326,53.7000,-0.018127
9.356,53.7000,-0.020544
9.387,53.7000,-0.016918
9.418,53.7000,-0.013293
9.453,53.7000,-0.015710
9.479,53.7000,-0.018127
9.511,53.7000,-0.018127
9.543,53.7000,-0.021752
9.574,53.7000,-0.019335
9.604,53.7000,-0.014501
9.635,53.7000,-0.016918
9.666,53.7000,-0.016918
9.697,53.7000,-0.014501
9.718,53.7000,-0.014501
9.744,53.7000,-0.020544
9.775,53.7000,-0.015710
9.806,53.7000,-0.016918
9.837,53.7000,-0.015710
9.871,53.7000,-0.012084
9.898,53.7000,-0.012084
9.930,53.7000,-0.018127
9.957,53.7000,-0.015710
9.993,53.7000,-0.015710
10.023,53.7000,-0.014501
10.055,53.7000,-0.013293
10.086,53.7000,-0.012084
10.116,53.7000,-0.012084
10.148,53.7000,-0.013293
10.170,53.7000,-0.013293
10.195,53.7000,-0.015710
10.226,53.7000,-0.016918
10.257,53.7000,-0.016918
10.288,53.7000,-0.015710
10.318,53.7000,-0.014501
10.350,53.7000,-0.016918
10.381,53.7000,-0.016918
10.412,53.7000,-0.013293
10.442,53.7000,-0.016918
10.474,53.7000,-0.016918
10.504,53.7000,-0.018127
10.537,53.7000,-0.014501
10.567,53.7000,-0.016918
10.601,53.7000,-0.012084
10.628,53.7000,-0.012084
10.659,53.7000,-0.015710
10.691,53.7000,-0.020544
10.722,53.7000,-0.018127
10.753,53.7000,-0.014501
10.784,53.7000,-0.013293
10.814,53.7000,-0.019335
10.846,53.7000,-0.015710
10.878,53.7000,-0.012084
10.910,53.7000,-0.010876
10.941,53.7000,-0.015710
10.973,53.7000,-0.015710
11.004,53.7000,-0.015710
11.036,53.7000,-0.019335
11.068,53.7000,-0.020544
11.098,53.6306,0.000000
11.129,53.5394,-0.002417
11.160,53.4437,0.002417
11.191,53.3500,0.018127
11.214,53.2832,0.018127
11.238,53.2111,0.030211
11.258,53.1530,0.030211
11.284,53.0707,0.045921
11.305,53.0098,0.055589
11.331,52.9313,0.061631
11.362,52.8386,0.064048
11.392,52.7492,0.078549
11.424,52.6525,0.087008
11.455,52.5614,0.106343
11.486,52.4666,0.117219
11.517,52.3751,0.132929
11.548,52.2785,0.141388
11.579,52.1884,0.170391
11.611,52.0916,0.170391
11.643,51.9977,0.194560
11.675,51.9023,0.211478
11.705,51.8099,0.228397
11.736,51.7175,0.240481
11.767,51.6226,0.241690
11.798,51.5306,0.245315
11.829,51.4361,0.239273
11.850,51.3770,0.236856
11.876,51.2993,0.224771
11.906,51.2065,0.212687
11.937,51.1151,0.157098
11.968,51.0191,0.076132
11.999,50.9291,0.004834
12.030,50.8352,0.006042
12.061,50.7422,0.003625
12.093,50.6462,0.002417
12.125,50.5508,0.003625
12.156,50.4545,0.004834
12.187,50.3633,0.004834
12.219,50.2652,0.004834
12.250,50.1755,0.004834
12.281,50.0798,0.003625
12.312,49.9874,-0.001208
12.339,49.9091,0.002417
12.376,49.7984,0.002417
12.405,49.7096,0.000000
12.436,49.6184,0.003625
12.467,49.5254,0.004834
12.499,49.4297,0.003625
12.530,49.3358,0.003625
12.560,49.2467,0.002417
12.592,49.1471,0.002417
12.622,49.0583,0.000000
12.643,48.9968,0.000000
12.668,48.9186,0.000000
12.691,48.8516,0.007251
12.715,48.7799,0.009668
12.746,48.6881,0.003625
12.778,48.5915,0.002417
12.807,48.5033,0.003625
12.838,48.4109,0.003625
12.871,48.3137,0.002417
12.900,48.2249,0.002417
12.931,48.1308,0.002417
12.962,48.0405,-0.001208
12.997,47.9282,0.006042
13.024,47.8547,0.006042
13.044,47.7927,0.000000
13.070,47.7128,0.002417
13.093,47.6501,0.002417
13.117,47.6501,0.004834
13.148,47.6501,-0.015710
13.179,47.6501,-0.004834
13.210,47.6501,0.002417
13.244,47.6501,-0.001208
13.272,47.6501,0.000000
13.303,47.6501,0.003625
13.335,47.6501,0.007251
13.366,47.6501,-0.002417
13.397,47.6501,-0.002417
13.428,47.6501,0.000000
13.459,47.6501,0.002417
13.490,47.6501,0.001208
13.522,47.6501,-0.003625
13.553,47.6501,0.001208
13.583,47.6501,0.003625
13.615,47.6501,0.003625
13.636,47.6501,0.001208
13.661,47.6501,0.000000
13.691,47.6853,0.001208
13.723,47.7783,-0.010876
13.754,47.8701,0.001208
13.784,47.9631,0.003625
13.815,48.0561,0.002417
13.848,48.1527,0.002417
13.876,48.2388,0.004834
13.907,48.3354,-0.002417
13.930,48.4014,0.000000
13.953,48.4692,-0.001208
13.984,48.5644,0.000000
14.015,48.6555,0.002417
14.047,48.7506,0.002417
14.077,48.8427,0.002417
14.109,48.9380,0.003625
14.140,49.0289,0.002417
14.170,49.1249,0.002417
14.201,49.2126,-0.001208
14.232,49.3071,-0.002417
14.264,49.4013,-0.001208
14.294,49.4925,0.001208
14.325,49.5873,-0.002417
14.345,49.6467,0.002417
14.372,49.7250,0.002417
14.403,49.8207,0.002417
14.436,49.9209,0.000000
14.469,50.0175,-0.001208
14.497,50.1009,0.001208
14.528,50.1956,-0.002417
14.549,50.2584,-0.002417
14.574,50.3307,0.002417
14.606,50.4303,0.001208
14.636,50.5193,0.002417
14.667,50.6121,0.003625
14.698,50.7054,0.001208
14.729,50.7969,-0.002417
14.761,50.8914,0.000000
14.791,50.9832,0.000000
14.822,51.0771,0.000000
14.853,51.1701,-0.001208
14.884,51.2604,0.003625
14.915,51.3546,-0.004834
14.946,51.4485,-0.001208
14.966,51.5067,0.001208
14.992,51.5843,-0.007251
15.013,51.6479,-0.008459
15.040,51.7323,-0.004834
15.062,51.7953,-0.004834
15.084,51.8613,-0.003625
15.114,51.9513,-0.002417
15.144,52.0422,-0.004834
15.176,52.1376,0.000000
15.207,52.2306,-0.003625
15.238,52.3230,-0.007251
15.270,52.4211,-0.007251
15.300,52.5102,-0.004834
15.332,52.6062,-0.009668
15.365,52.7051,-0.006042
15.396,52.7975,-0.007251
15.426,52.8905,-0.007251
15.458,52.9839,-0.012084
15.489,53.0789,-0.019335
15.520,53.1692,-0.018127
15.551,53.2614,-0.019335
15.582,53.3574,-0.024169
15.612,53.4468,-0.024169
15.643,53.5398,-0.030211
15.663,53.6001,-0.036253
15.690,53.6501,-0.036253
15.721,53.6501,-0.032628
15.751,53.6501,-0.031420
15.783,53.6501,-0.037462
15.813,53.6501,-0.033837
15.844,53.6501,-0.033837
15.875,53.6501,-0.036253
15.906,53.6501,-0.031420
15.936,53.6501,-0.029003
15.968,53.6501,-0.032628
15.999,53.6501,-0.026586
16.030,53.6501,-0.031420
16.053,53.6501,-0.030211
16.077,53.6501,-0.030211
16.108,53.6501,-0.032628
16.139,53.6501,-0.027794
16.171,53.6501,-0.026586
16.200,53.6501,-0.025377
16.231,53.6501,-0.025377
16.263,53.6501,-0.026586
16.294,53.6501,-0.026586
16.324,53.6501,-0.027794
16.355,53.6501,-0.024169
16.386,53.6501,-0.022961
16.417,53.6501,-0.025377
16.437,53.6501,-0.025377
16.464,53.6501,-0.025377
16.495,53.6501,-0.025377
16.527,53.6501,-0.025377
16.558,53.6501,-0.021752
16.589,53.6501,-0.021752
16.620,53.6501,-0.021752
16.651,53.6501,-0.025377
16.682,53.6501,-0.026586
16.713,53.6501,-0.024169
16.745,53.6501,-0.022961
16.776,53.6501,-0.024169
16.807,53.6501,-0.024169
16.838,53.6501,-0.022961
16.869,53.6501,-0.024169
16.900,53.6501,-0.026586
16.932,53.6501,-0.022961
16.963,53.6501,-0.021752
16.994,53.6501,-0.024169
17.026,53.6501,-0.025377
17.057,53.6501,-0.020544
17.089,53.6501,-0.020544
17.121,53.6501,-0.025377
17.141,53.6501,-0.020544
17.168,53.6501,-0.020544
17.190,53.6501,-0.019335
17.213,53.6501,-0.024169
17.244,53.6501,-0.026586
17.275,53.6501,-0.026586
17.305,53.6501,-0.021752
17.336,53.6501,-0.021752
17.368,53.6501,-0.025377
17.400,53.6501,-0.020544
17.431,53.6501,-0.020544
17.462,53.6501,-0.022961
17.493,53.6501,-0.025377
17.525,53.6501,-0.022961
17.555,53.6501,-0.020544
17.577,53.6501,-0.020544
17.601,53.6501,-0.022961
17.632,53.6501,-0.022961
17.653,53.6501,-0.020544
17.678,53.6501,-0.020544
17.710,53.6501,-0.022961
17.741,53.6501,-0.021752
17.771,53.6501,-0.019335
17.802,53.6501,-0.022961
17.833,53.6501,-0.022961
17.865,53.6501,-0.020544
17.896,53.6501,-0.021752
17.928,53.6501,-0.018127
17.958,53.6501,-0.021752
17.990,53.6501,-0.021752
18.021,53.6501,-0.016918
18.052,53.6501,-0.019335
18.082,53.6501,-0.027794
18.114,53.6501,-0.019335
18.145,53.6501,-0.019335
18.176,53.6501,-0.019335
18.196,53.6501,-0.020544
18.222,53.6501,-0.019335
18.244,53.6501,-0.018127
18.268,53.6501,-0.018127
18.300,53.6501,-0.018127
18.331,53.6501,-0.016918
18.362,53.6501,-0.019335
18.393,53.6501,-0.021752
18.425,53.6501,-0.021752
18.456,53.6501,-0.018127
18.487,53.6501,-0.019335
18.518,53.6501,-0.021752
18.548,53.6501,-0.019335
18.579,53.6501,-0.025377
18.611,53.6501,-0.024169
18.641,53.6501,-0.020544
18.672,53.6501,-0.020544
18.692,53.6501,-0.018127
18.718,53.6501,-0.018127
18.749,53.6501,-0.016918
18.779,53.6501,-0.015710
18.810,53.6501,-0.019335
18.841,53.6501,-0.014501
18.873,53.6501,-0.018127
18.905,53.6501,-0.015710
18.935,53.6501,-0.015710
18.966,53.6501,-0.019335
18.997,53.6501,-0.018127
19.020,53.6501,-0.018127
19.043,53.6501,-0.014501
19.074,53.6501,-0.019335
19.105,53.6501,-0.020544
19.137,53.6501,-0.016918
19.167,53.6501,-0.020544
19.188,53.6501,-0.018127
19.213,53.6501,-0.019335
19.244,53.6501,-0.019335
19.275,53.6501,-0.016918
19.306,53.6501,-0.016918
19.337,53.6501,-0.022961
19.368,53.6501,-0.021752
19.398,53.6501,-0.018127
19.430,53.6501,-0.018127
19.460,53.6501,-0.018127
19.492,53.6501,-0.016918
19.522,53.6501,-0.018127
19.554,53.6501,-0.021752
19.585,53.6501,-0.021752
19.616,53.6501,-0.018127
19.648,53.6501,-0.020544
19.669,53.6501,-0.020544
19.694,53.6501,-0.018127
19.725,53.6501,-0.018127
19.756,53.6501,-0.015710
19.787,53.6501,-0.019335
19.817,53.6501,-0.019335
19.847,53.6501,-0.018127
19.880,53.6501,-0.018127
19.911,53.6501,-0.018127
19.943,53.6501,-0.015710
19.975,53.6501,-0.015710
20.006,53.6501,-0.018127
20.038,53.6501,-0.018127
20.069,53.6501,-0.018127
20.099,53.6501,-0.021752
20.131,53.6501,-0.021752
20.162,53.6501,-0.021752
20.193,53.6501,-0.018127
20.233,53.6501,-0.020544
20.256,53.6501,-0.018127
20.286,53.6501,-0.019335
20.308,53.6501,-0.019335
20.333,53.6501,-0.020544
20.364,53.6501,-0.024169
20.395,53.6501,-0.019335
20.427,53.6501,-0.018127
20.458,53.6501,-0.019335
20.489,53.6501,-0.019335
20.520,53.6501,-0.016918
20.551,53.6501,-0.014501
20.581,53.6501,-0.018127
20.613,53.6501,-0.021752
20.645,53.6501,-0.020544
20.674,53.6501,-0.022961
20.706,53.6501,-0.020544
20.736,53.6501,-0.019335
20.768,53.6501,-0.019335
20.799,53.6501,-0.016918
20.820,53.6501,-0.016918
20.845,53.6501,-0.018127
20.876,53.6501,-0.016918
20.907,53.6501,-0.016918
20.938,53.6501,-0.016918
20.970,53.6501,-0.015710
21.000,53.6501,-0.014501
21.031,53.6501,-0.014501
21.063,53.6501,-0.018127
21.096,53.6501,-0.021752
21.127,53.6501,-0.021752
21.159,53.6501,-0.018127
21.190,53.6501,-0.019335
21.221,53.6501,-0.019335
21.252,53.6501,-0.022961
21.283,53.6501,-0.015710
21.315,53.6501,-0.016918
21.345,53.6501,-0.018127
21.377,53.6501,-0.015710
21.409,53.6501,-0.016918
21.441,53.6501,-0.014501
21.471,53.6501,-0.015710
21.502,53.6501,-0.021752
21.523,53.6501,-0.016918
21.549,53.6501,-0.016918
21.580,53.6501,-0.014501
21.611,53.6501,-0.015710
21.641,53.6501,-0.015710
21.671,53.6501,-0.015710
21.702,53.6501,-0.016918
21.733,53.6501,-0.016918
21.765,53.6501,-0.019335
21.797,53.6501,-0.014501
21.827,53.6501,-0.015710
21.858,53.6501,-0.015710
21.888,53.6501,-0.015710
21.919,53.6501,-0.013293
21.950,53.6501,-0.013293
21.971,53.6501,-0.014501
21.997,53.6501,-0.019335
22.028,53.6501,-0.019335
22.050,53.6501,-0.016918
22.077,53.6501,-0.018127
22.105,53.6501,-0.018127
22.136,53.6501,-0.015710
22.167,53.6501,-0.012084
22.199,53.6501,-0.019335
22.231,53.6501,-0.021752
22.263,53.6501,-0.016918
22.294,53.6501,-0.015710
22.326,53.6501,-0.016918
22.356,53.6501,-0.013293
22.388,53.6501,-0.016918
22.418,53.6501,-0.016918
22.448,53.6501,-0.016918
22.468,53.6501,-0.014501
22.495,53.6501,-0.014501
22.527,53.6501,-0.014501
22.558,53.6501,-0.018127
22.578,53.6501,-0.018127
22.599,53.6501,-0.020544
22.636,53.6501,-0.014501
22.666,53.6501,-0.015710
22.697,53.6501,-0.018127
22.729,53.6501,-0.018127
22.760,53.6501,-0.018127
22.794,53.6501,-0.018127
22.824,53.6501,-0.016918
22.856,53.6501,-0.015710
22.887,53.6501,-0.019335
22.918,53.6501,-0.016918
22.949,53.6501,-0.016918
22.979,53.6501,-0.018127
23.010,53.6501,-0.019335
23.031,53.6501,-0.019335
23.057,53.6501,-0.015710
23.089,53.6501,-0.015710
23.119,53.6501,-0.020544
23.141,53.6501,-0.020544
23.166,53.6501,-0.016918
23.197,53.6501,-0.014501
23.228,53.6501,-0.013293
23.259,53.6501,-0.016918
23.289,53.6501,-0.019335
23.322,53.6501,-0.015710
23.352,53.6501,-0.016918
23.384,53.6501,-0.012084
23.415,53.6501,-0.015710
23.447,53.6501,-0.014501
23.478,53.6501,-0.016918
23.509,53.6501,-0.016918
23.540,53.6501,-0.019335
23.571,53.6501,-0.021752
23.603,53.6501,-0.022961
23.634,53.6501,-0.020544
23.665,53.6501,-0.020544
23.696,53.6501,-0.020544
23.727,53.6501,-0.015710
23.758,53.6501,-0.015710
23.789,53.6501,-0.016918
23.819,53.6501,-0.016918
23.850,53.6501,-0.015710
23.881,53.6501,-0.018127
23.912,53.6501,-0.021752
23.944,53.6501,-0.019335
23.976,53.6501,-0.016918
24.007,53.6501,-0.016918
24.037,53.6501,-0.019335
24.068,53.6501,-0.021752
24.099,53.6501,-0.016918
24.130,53.6501,-0.016918
24.162,53.6501,-0.018127
24.193,53.6501,-0.015710
24.215,53.6501,-0.019335
24.238,53.6501,-0.019335
24.269,53.6501,-0.018127
24.300,53.6501,-0.014501
24.331,53.6501,-0.016918
24.363,53.6501,-0.015710
