Elapsed Time (s),Position (mm),Force (N)
-0.013,66.1593,-0.852826
0.018,66.1593,-0.852826
0.049,66.1593,-0.852826
0.079,66.1593,-0.852826
0.110,66.1593,-0.852826
0.141,66.1593,-0.852826
0.172,66.1593,-0.655772
0.203,66.1593,-0.655772
0.235,66.1593,-0.655772
0.266,66.1593,-0.655772
0.297,66.1593,-0.655772
0.327,66.1593,-0.655772
0.358,66.1593,-0.655772
0.389,66.1593,-0.655772
0.419,66.1593,-0.655772
0.450,66.1593,-0.445732
0.480,66.1593,-0.445732
0.510,66.1593,-0.445732
0.542,66.1593,-0.445732
0.572,66.1593,-0.445732
0.602,66.1593,-0.445732
0.633,66.1593,-0.445732
0.659,66.1593,-0.445732
0.694,66.1593,-0.360747
0.726,66.1593,-0.360747
0.758,66.1593,-0.360747
0.787,66.1593,-0.360747
0.818,66.1593,-0.360747
0.850,66.1593,-0.360747
0.881,66.1593,-0.360747
0.911,66.1593,-0.360747
0.942,66.1593,-0.316556
0.972,66.1593,-0.316556
1.003,66.1593,-0.316556
1.035,66.1593,-0.316556
1.065,66.1593,-0.316556
1.096,66.1593,-0.316556
1.128,66.1593,-0.316556
1.159,66.1593,-0.316556
1.190,66.1593,-0.316556
1.221,66.1593,-0.290132
1.252,66.1593,-0.290132
1.283,66.1593,-0.290132
1.314,66.1593,-0.290132
1.345,66.1593,-0.290132
1.376,66.1593,-0.290132
1.408,66.1593,-0.290132
1.439,66.1593,-0.290132
1.470,66.1593,-0.272798
1.501,66.1593,-0.272798
1.533,66.1593,-0.272798
1.563,66.1593,-0.272798
1.595,66.1593,-0.272798
1.626,66.1593,-0.272798
1.657,66.1593,-0.272798
1.688,66.1593,-0.272798
1.719,66.1593,-0.260564
1.751,66.1593,-0.260564
1.782,66.1593,-0.260564
1.813,66.1593,-0.260564
1.843,66.1593,-0.260564
1.876,66.1593,-0.260564
1.905,66.1593,-0.260564
1.936,66.1593,-0.260564
1.968,66.1593,-0.251474
2.001,66.1593,-0.251474
2.031,66.1593,-0.251474
2.062,66.1593,-0.251474
2.093,66.1593,-0.251474
2.128,66.1593,-0.251474
2.156,66.1593,-0.251474
2.186,66.1593,-0.251474
2.218,66.1593,-0.244388
2.249,66.1593,-0.244388
2.280,66.1593,-0.244388
2.313,66.1593,-0.244388
2.341,66.1593,-0.244388
2.372,66.1593,-0.244388
2.404,66.1593,-0.244388
2.435,66.1593,-0.244388
2.466,66.1593,-0.238657
2.497,66.1593,-0.238657
2.528,66.1593,-0.238657
2.559,66.1593,-0.238657
2.590,66.1593,-0.238657
2.621,66.1593,-0.238657
2.652,66.1593,-0.238657
2.684,66.1593,-0.238657
2.715,66.1593,-0.233980
2.746,66.1593,-0.233980
2.777,66.1593,-0.233980
2.808,66.1593,-0.233980
2.839,66.1593,-0.233980
2.870,66.1593,-0.233980
2.901,66.1593,-0.233980
2.932,66.1593,-0.233980
2.965,66.1593,-0.229990
2.993,66.1593,-0.229990
3.024,66.1593,-0.229990
3.055,66.1593,-0.229990
3.086,66.1593,-0.229990
3.117,66.1593,-0.229990
3.149,66.1593,-0.229990
3.180,66.1593,-0.226546
3.212,66.1593,-0.226546
3.241,66.1593,-0.226546
3.273,66.1593,-0.226546
3.304,66.1593,-0.226546
3.336,66.1593,-0.226546
3.367,66.1593,-0.226546
3.401,66.1593,-0.226546
3.432,66.1593,-0.226546
3.460,66.1593,-0.226546
3.491,66.1593,-0.223591
3.525,66.1593,-0.223591
3.553,66.1593,-0.223591
3.583,66.1593,-0.223591
3.615,66.1593,-0.223591
3.647,66.1593,-0.223591
3.677,66.1593,-0.220316
3.708,66.1593,-0.220316
3.739,66.1593,-0.220316
3.771,66.1593,-0.220316
3.801,66.1593,-0.220316
3.832,66.1593,-0.220316
3.863,66.1593,-0.220316
3.893,66.1593,-0.220316
3.925,66.1593,-0.216260
3.957,66.1593,-0.216260
3.987,66.1593,-0.216260
4.018,66.1593,-0.216260
4.049,66.1593,-0.216260
4.081,66.1592,-0.216260
4.111,66.1583,-0.216260
4.143,66.1567,-0.216260
4.173,66.1545,-0.216260
4.204,66.1514,-0.211724
4.235,66.1478,-0.211724
4.266,66.1432,-0.211724
4.296,66.1381,-0.211724
4.328,66.1318,-0.211724
4.359,66.1256,-0.211724
4.390,66.1181,-0.211724
4.421,66.1101,0.134550
4.451,66.1013,0.134550
4.483,66.0915,0.134550
4.515,66.0809,0.134550
4.545,66.0700,0.134550
4.576,66.0584,0.134550
4.608,66.0455,0.134550
4.640,66.0319,0.134550
4.670,66.0183,0.134550
4.701,66.0039,0.134550
4.732,65.9880,0.258325
4.763,65.9720,0.258325
4.796,65.9539,0.258325
4.824,65.9383,0.258325
4.862,65.9149,0.258325
4.901,65.8912,0.258325
4.932,65.8711,0.258325
4.963,65.8505,0.027732
4.993,65.8295,0.027732
5.024,65.8071,0.027732
5.055,65.7844,0.027732
5.085,65.7608,0.027732
5.118,65.7358,0.027732
5.148,65.7105,0.027732
5.180,65.6847,0.027732
5.210,65.6583,0.028448
5.241,65.6307,0.028448
5.273,65.6016,0.028448
5.305,65.5724,0.028448
5.335,65.5437,0.028448
5.365,65.5145,0.028448
5.397,65.4831,0.028448
5.428,65.4513,0.028448
5.459,65.4186,0.050223
5.494,65.3806,0.050223
5.521,65.3517,0.050223
5.552,65.3173,0.050223
5.583,65.2812,0.050223
5.616,65.2431,0.050223
5.645,65.2083,0.050223
5.676,65.1703,0.050223
5.707,65.1328,0.066663
5.739,65.0927,0.066663
5.769,65.0536,0.066663
5.801,65.0110,0.066663
5.830,64.9727,0.066663
5.863,64.9274,0.066663
5.893,64.8865,0.066663
5.925,64.8411,0.066663
5.955,64.7996,0.066663
5.987,64.7535,0.074700
6.018,64.7075,0.074700
6.048,64.6631,0.074700
6.079,64.6171,0.074700
6.109,64.5701,0.074700
6.141,64.5239,0.074700
6.172,64.4756,0.074700
6.202,64.4310,0.077523
6.234,64.3840,0.077523
6.265,64.3372,0.077523
6.295,64.2928,0.077523
6.327,64.2440,0.077523
6.358,64.1991,0.077523
6.388,64.1515,0.077523
6.421,64.1035,0.077523
6.451,64.0571,0.077523
6.482,64.0121,0.077749
6.513,63.9661,0.077749
6.544,63.9191,0.077749
6.575,63.8727,0.077749
6.607,63.8252,0.077749
6.638,63.7782,0.077749
6.669,63.7319,0.077749
6.700,63.6853,0.079744
6.731,63.6375,0.079744
6.763,63.5913,0.079744
6.794,63.5433,0.079744
6.825,63.4971,0.079744
6.857,63.4485,0.079744
6.887,63.4054,0.079744
6.918,63.3587,0.079744
6.949,63.3112,0.085512
6.980,63.2647,0.085512
7.010,63.2206,0.085512
7.041,63.1741,0.085512
7.072,63.1271,0.085512
7.103,63.0807,0.085512
7.133,63.0353,0.085512
7.164,62.9895,0.085512
7.194,62.9436,0.095412
7.225,62.8965,0.095412
7.256,62.8507,0.095412
7.288,62.8034,0.095412
7.319,62.7567,0.095412
7.351,62.7090,0.095412
7.382,62.6632,0.095412
7.411,62.6176,0.095412
7.442,62.5721,0.108003
7.476,62.5202,0.108003
7.504,62.4811,0.108003
7.535,62.4359,0.108003
7.566,62.3932,0.108003
7.597,62.3506,0.108003
7.628,62.3085,0.108003
7.658,62.2677,0.108003
7.690,62.2273,0.083150
7.721,62.1861,0.083150
7.751,62.1485,0.083150
7.781,62.1109,0.083150
7.813,62.0722,0.083150
7.844,62.0358,0.083150
7.875,61.9987,0.083150
7.905,61.9637,0.083150
7.938,61.9266,0.035148
7.967,61.8946,0.035148
7.999,61.8608,0.035148
8.029,61.8284,0.035148
8.061,61.7958,0.035148
8.092,61.7652,0.035148
8.123,61.7344,0.035148
8.153,61.7054,0.035148
8.185,61.6752,0.035148
8.216,61.6472,0.017033
8.247,61.6191,0.017033
8.280,61.5914,0.017033
8.309,61.5657,0.017033
8.340,61.5412,0.017033
8.372,61.5153,0.017033
8.403,61.4914,0.017033
8.433,61.4689,0.015565
8.465,61.4460,0.015565
8.497,61.4237,0.015565
8.527,61.4023,0.015565
8.559,61.3818,0.015565
8.590,61.3627,0.015565
8.621,61.3440,0.015565
8.652,61.3255,0.015565
8.683,61.3079,0.014868
8.715,61.2911,0.014868
8.745,61.2753,0.014868
8.777,61.2601,0.014868
8.807,61.2459,0.014868
8.838,61.2322,0.014868
8.869,61.2188,0.014868
8.901,61.2064,0.014868
8.933,61.1945,0.014511
8.963,61.1842,0.014511
8.994,61.1742,0.014511
9.024,61.1650,0.014511
9.056,61.1563,0.014511
9.087,61.1481,0.014511
9.117,61.1414,0.014511
9.148,61.1350,0.014511
9.179,61.1293,0.014511
9.209,61.1242,0.014238
9.240,61.1200,0.014238
9.270,61.1164,0.014238
9.301,61.1137,0.014238
9.334,61.1114,0.014238
9.364,61.1101,0.014238
9.395,61.1094,0.014238
9.426,61.1093,0.013909
9.456,61.1093,0.013909
9.487,61.1093,0.013909
9.518,61.1093,0.013909
9.550,61.1093,0.013909
9.580,61.1098,0.013909
9.611,61.1111,0.013909
9.643,61.1132,0.013909
9.678,61.1164,0.013909
9.719,61.1211,0.013909
9.750,61.1258,0.013711
9.781,61.1308,0.013711
9.812,61.1369,0.013711
9.843,61.1434,0.013711
9.875,61.1511,0.013711
9.906,61.1592,0.013711
9.936,61.1682,0.013711
9.967,61.1774,0.013513
9.998,61.1878,0.013513
10.029,61.1989,0.013513
10.060,61.2105,0.013513
10.091,61.2229,0.013513
10.121,61.2364,0.013513
10.152,61.2503,0.013513
10.184,61.2650,0.013513
10.216,61.2810,0.013118
10.246,61.2967,0.013118
10.277,61.3133,0.013118
10.308,61.3313,0.013118
10.339,61.3494,0.013118
10.370,61.3685,0.013118
10.401,61.3881,0.013118
10.432,61.4086,0.013118
10.463,61.4298,0.012676
10.495,61.4525,0.012676
10.526,61.4756,0.012676
10.557,61.4991,0.012676
10.589,61.5237,0.012676
10.620,61.5490,0.012676
10.651,61.5744,0.012676
10.682,61.6016,0.012676
10.713,61.6279,0.012177
10.745,61.6563,0.012177
10.775,61.6844,0.012177
10.806,61.7139,0.012177
10.838,61.7447,0.012177
10.868,61.7751,0.012177
10.899,61.8065,0.012177
10.930,61.8380,0.012177
10.961,61.8712,0.011434
10.992,61.9048,0.011434
11.022,61.9384,0.011434
11.054,61.9740,0.011434
11.085,62.0104,0.011434
11.117,62.0476,0.011434
11.147,62.0835,0.011434
11.178,62.1216,0.011434
11.209,62.1599,0.010436
11.240,62.1997,0.010436
11.270,62.2391,0.010436
11.302,62.2807,0.010436
11.332,62.3215,0.010436
11.364,62.3648,0.010436
11.394,62.4059,0.010436
11.425,62.4504,0.010436
11.456,62.4947,0.009109
11.488,62.5425,0.009109
11.518,62.5867,0.009109
11.549,62.6321,0.009109
11.579,62.6785,0.009109
11.611,62.7255,0.009109
11.641,62.7722,0.009109
11.672,62.8176,0.007340
11.703,62.8641,0.007340
11.735,62.9116,0.007340
11.766,62.9584,0.007340
11.798,63.0068,0.007340
11.829,63.0531,0.007340
11.863,63.1050,0.007340
11.891,63.1463,0.007340
11.923,63.1945,0.007340
11.956,63.2449,0.005147
11.984,63.2861,0.005147
12.018,63.3367,0.005147
12.046,63.3777,0.005147
12.077,63.4246,0.005147
12.107,63.4694,0.005147
12.137,63.5159,0.005147
12.169,63.5630,0.005147
12.201,63.6108,0.002108
12.232,63.6571,0.002108
12.263,63.7043,0.002108
12.293,63.7502,0.002108
12.324,63.7953,0.002108
12.355,63.8421,0.002108
12.386,63.8882,0.002108
12.417,63.9346,0.002108
12.449,63.9836,-0.002475
12.478,64.0271,-0.002475
12.509,64.0744,-0.002475
12.543,64.1238,-0.002475
12.572,64.1670,-0.002475
12.603,64.2139,-0.002475
12.634,64.2611,-0.002475
12.665,64.3069,-0.002475
12.696,64.3535,-0.002475
12.727,64.3995,-0.009890
12.758,64.4456,-0.009890
12.791,64.4969,-0.009890
12.819,64.5371,-0.009890
12.849,64.5840,-0.009890
12.881,64.6310,-0.009890
12.911,64.6767,-0.009890
12.943,64.7227,-0.022406
12.975,64.7680,-0.022406
13.005,64.8103,-0.022406
13.036,64.8540,-0.022406
13.068,64.8971,-0.022406
13.100,64.9408,-0.022406
13.131,64.9807,-0.022406
13.162,65.0229,-0.022406
13.193,65.0605,-0.042093
13.228,65.1055,-0.042093
13.254,65.1365,-0.042093
13.285,65.1737,-0.042093
13.316,65.2099,-0.042093
13.346,65.2453,-0.042093
13.377,65.2796,-0.042093
13.408,65.3145,-0.042093
13.438,65.3471,-0.042093
13.470,65.3806,-0.070700
13.501,65.4126,-0.070700
13.532,65.4441,-0.070700
13.563,65.4747,-0.070700
13.593,65.5047,-0.070700
13.624,65.5337,-0.070700
13.656,65.5628,-0.070700
13.687,65.5905,-0.110638
13.718,65.6175,-0.110638
13.748,65.6439,-0.110638
13.779,65.6689,-0.110638
13.810,65.6941,-0.110638
13.841,65.7185,-0.110638
13.872,65.7420,-0.110638
13.910,65.7696,-0.110638
13.950,65.7980,-0.174102
13.982,65.8191,-0.174102
14.013,65.8395,-0.174102
14.043,65.8589,-0.174102
14.074,65.8773,-0.174102
14.105,65.8948,-0.174102
14.139,65.9140,-0.174102
14.167,65.9288,-0.174102
14.198,65.9451,-0.174102
14.228,65.9598,-0.297811
14.263,65.9756,-0.297811
14.289,65.9870,-0.297811
14.320,66.0002,-0.297811
14.351,66.0123,-0.297811
14.382,66.0240,-0.297811
14.407,66.0326,-0.297811
14.445,66.0448,-0.493481
14.475,66.0540,-0.493481
14.508,66.0634,-0.493481
14.541,66.0716,-0.493481
14.582,66.0806,-0.493481
14.614,66.0869,-0.493481
14.645,66.0922,-0.493481
14.677,66.0971,-0.736843
14.710,66.1011,-0.736843
14.738,66.1039,-0.736843
14.772,66.1066,-0.736843
14.800,66.1081,-0.736843
14.831,66.1091,-0.736843
14.862,66.1093,-0.736843
14.893,66.1093,-0.736843
14.924,66.1093,-0.736843
14.955,66.1093,-0.736843
14.986,66.1093,-0.843255
15.020,66.1093,-0.843255
15.048,66.1093,-0.843255
15.078,66.1093,-0.843255
15.110,66.1093,-0.843255
15.141,66.1093,-0.843255
15.172,66.1093,-0.843255
15.203,66.1093,-0.667733
15.235,66.1093,-0.667733
15.265,66.1093,-0.667733
15.296,66.1093,-0.667733
15.328,66.1093,-0.667733
15.358,66.1093,-0.667733
15.390,66.1093,-0.667733
15.420,66.1093,-0.667733
15.452,66.1093,-0.455246
15.483,66.1093,-0.455246
15.514,66.1093,-0.455246
15.545,66.1093,-0.455246
15.576,66.1093,-0.455246
15.607,66.1093,-0.455246
15.638,66.1093,-0.455246
15.668,66.1093,-0.455246
15.699,66.1093,-0.363918
15.731,66.1093,-0.363918
15.762,66.1093,-0.363918
15.792,66.1093,-0.363918
15.824,66.1093,-0.363918
15.855,66.1093,-0.363918
15.888,66.1093,-0.363918
15.917,66.1093,-0.363918
15.949,66.1093,-0.317450
15.981,66.1093,-0.317450
16.012,66.1093,-0.317450
16.043,66.1093,-0.317450
16.074,66.1093,-0.317450
16.104,66.1093,-0.317450
16.136,66.1093,-0.317450
16.167,66.1093,-0.317450
16.198,66.1093,-0.289953
16.231,66.1093,-0.289953
16.260,66.1093,-0.289953
16.291,66.1093,-0.289953
16.322,66.1093,-0.289953
16.354,66.1093,-0.289953
16.385,66.1093,-0.289953
16.417,66.1093,-0.289953
16.448,66.1093,-0.272064
16.479,66.1093,-0.272064
16.510,66.1093,-0.272064
16.542,66.1093,-0.272064
16.573,66.1093,-0.272064
16.605,66.1093,-0.272064
16.635,66.1093,-0.272064
16.666,66.1093,-0.272064
16.697,66.1093,-0.259567
16.728,66.1093,-0.259567
16.760,66.1093,-0.259567
16.791,66.1093,-0.259567
16.822,66.1093,-0.259567
16.854,66.1093,-0.259567
16.885,66.1093,-0.259567
16.916,66.1093,-0.259567
16.947,66.1093,-0.250297
16.978,66.1093,-0.250297
17.010,66.1093,-0.250297
17.041,66.1093,-0.250297
17.072,66.1093,-0.250297
17.103,66.1093,-0.250297
17.134,66.1093,-0.250297
17.165,66.1093,-0.250297
17.196,66.1093,-0.243193
17.228,66.1093,-0.243193
17.258,66.1093,-0.243193
17.289,66.1093,-0.243193
17.321,66.1093,-0.243193
17.352,66.1093,-0.243193
17.383,66.1093,-0.243193
17.414,66.1093,-0.243193
17.445,66.1093,-0.237490
17.475,66.1093,-0.237490
17.506,66.1093,-0.237490
17.537,66.1093,-0.237490
17.569,66.1093,-0.237490
17.598,66.1093,-0.237490
17.629,66.1093,-0.237490
17.660,66.1093,-0.237490
17.689,66.1093,-0.237490
17.721,66.1093,-0.232757
17.751,66.1093,-0.232757
17.783,66.1093,-0.232757
17.813,66.1093,-0.232757
17.844,66.1093,-0.232757
17.875,66.1093,-0.232757
17.905,66.1093,-0.232757
17.937,66.1093,-0.232757
17.968,66.1093,-0.228635
17.999,66.1093,-0.228635
18.030,66.1093,-0.228635
18.062,66.1093,-0.228635
18.092,66.1093,-0.228635
18.123,66.1093,-0.228635
18.154,66.1093,-0.228635
18.186,66.1093,-0.228635
18.217,66.1093,-0.225125
18.247,66.1093,-0.225125
18.279,66.1093,-0.225125
18.311,66.1093,-0.225125
18.343,66.1093,-0.225125
18.374,66.1093,-0.225125
18.405,66.1093,-0.225125
18.436,66.1093,-0.222160
18.467,66.1093,-0.222160
18.498,66.1093,-0.222160
18.529,66.1093,-0.222160
18.559,66.1093,-0.222160
18.590,66.1093,-0.222160
18.623,66.1093,-0.222160
18.652,66.1093,-0.222160
18.682,66.1093,-0.222160
18.713,66.1093,-0.218763
18.744,66.1093,-0.218763
18.775,66.1093,-0.218763
18.806,66.1093,-0.218763
18.838,66.1093,-0.218763
18.868,66.1093,-0.218763
18.899,66.1093,-0.218763
18.930,66.1093,-0.214642
18.961,66.1093,-0.214642
18.992,66.1093,-0.214642
19.022,66.1093,-0.214642
19.053,66.1093,-0.214642
19.084,66.1093,-0.214642
19.115,66.1093,-0.214642
19.146,66.1086,-0.214642
19.176,66.1073,-0.214642
19.207,66.1052,-0.210200
19.238,66.1024,-0.210200
19.269,66.0989,-0.210200
19.300,66.0947,-0.210200
19.331,66.0895,-0.210200
19.362,66.0838,-0.210200
19.394,66.0772,-0.210200
19.424,66.0701,-0.210200
19.455,66.0622,-0.029379
19.487,66.0534,-0.029379
19.518,66.0440,-0.029379
19.549,66.0339,-0.029379
19.580,66.0230,-0.029379
19.612,66.0111,-0.029379
19.644,65.9986,-0.029379
19.675,65.9854,-0.029379
19.705,65.9720,0.122975
19.737,65.9573,0.122975
19.766,65.9429,0.122975
19.798,65.9265,0.122975
19.829,65.9099,0.122975
19.860,65.8927,0.122975
19.891,65.8743,0.122975
19.922,65.8550,0.122975
19.953,65.8361,0.056095
19.983,65.8158,0.056095
20.014,65.7952,0.056095
20.046,65.7729,0.056095
20.077,65.7503,0.056095
20.107,65.7277,0.056095
20.138,65.7039,0.056095
20.169,65.6790,0.056095
20.200,65.6537,0.025502
20.230,65.6281,0.025502
20.261,65.6023,0.025502
20.291,65.5752,0.025502
20.322,65.5468,0.025502
20.354,65.5174,0.025502
20.384,65.4883,0.025502
20.415,65.4572,0.025502
20.446,65.4271,0.025502
20.477,65.3943,0.046760
20.508,65.3628,0.046760
20.539,65.3288,0.046760
20.570,65.2949,0.046760
20.603,65.2572,0.046760
20.631,65.2253,0.046760
20.663,65.1877,0.046760
20.693,65.1514,0.064706
20.725,65.1133,0.064706
20.756,65.0752,0.064706
20.787,65.0357,0.064706
20.817,64.9978,0.064706
20.848,64.9567,0.064706
20.879,64.9149,0.064706
20.910,64.8733,0.064706
20.942,64.8297,0.074191
20.973,64.7851,0.074191
21.004,64.7416,0.074191
21.035,64.6963,0.074191
21.065,64.6523,0.074191
21.096,64.6049,0.074191
21.128,64.5580,0.074191
21.160,64.5098,0.074191
21.191,64.4639,0.077636
21.223,64.4139,0.077636
21.253,64.3708,0.077636
21.283,64.3246,0.077636
21.315,64.2771,0.077636
21.346,64.2307,0.077636
21.376,64.1862,0.077636
21.407,64.1390,0.077636
21.443,64.0855,0.077909
21.483,64.0252,0.077909
21.514,63.9780,0.077909
21.545,63.9330,0.077909
21.576,63.8862,0.077909
21.607,63.8404,0.077909
21.639,63.7923,0.077909
21.669,63.7471,0.077909
21.700,63.6999,0.077909
21.731,63.6529,0.079123
21.762,63.6060,0.079123
21.794,63.5597,0.079123
21.825,63.5125,0.079123
21.857,63.4653,0.079123
21.887,63.4184,0.079123
21.918,63.3730,0.079123
21.950,63.3253,0.079123
21.981,63.2790,0.084054
22.012,63.2319,0.084054
22.043,63.1856,0.084054
22.074,63.1396,0.084054
22.104,63.0947,0.084054
22.135,63.0474,0.084054
22.166,63.0009,0.084054
22.197,62.9545,0.084054
22.228,62.9080,0.093210
22.260,62.8602,0.093210
22.290,62.8150,0.093210
22.321,62.7689,0.093210
22.353,62.7209,0.093210
22.385,62.6726,0.093210
22.415,62.6269,0.093210
22.446,62.5805,0.093210
22.477,62.5350,0.106149
22.508,62.4883,0.106149
22.539,62.4438,0.106149
22.574,62.3927,0.106149
22.600,62.3560,0.106149
22.632,62.3121,0.106149
22.662,62.2708,0.106149
22.694,62.2285,0.097360
22.726,62.1862,0.097360
22.755,62.1485,0.097360
22.786,62.1078,0.097360
22.818,62.0694,0.097360
22.848,62.0313,0.097360
22.879,61.9947,0.097360
22.910,61.9576,0.097360
22.941,61.9228,0.050223
22.972,61.8865,0.050223
23.003,61.8521,0.050223
23.034,61.8191,0.050223
23.065,61.7861,0.050223
23.096,61.7542,0.050223
23.128,61.7219,0.050223
23.158,61.6921,0.050223
23.190,61.6617,0.050223
23.220,61.6330,0.017569
23.252,61.6032,0.017569
23.283,61.5750,0.017569
23.314,61.5487,0.017569
23.346,61.5218,0.017569
23.377,61.4958,0.017569
23.408,61.4715,0.017569
23.439,61.4473,0.015809
23.469,61.4245,0.015809
23.500,61.4014,0.015809
23.531,61.3799,0.015809
23.562,61.3586,0.015809
23.592,61.3388,0.015809
23.621,61.3195,0.015809
23.653,61.3004,0.015809
23.684,61.2823,0.015809
23.716,61.2639,0.015085
23.747,61.2474,0.015085
23.777,61.2314,0.015085
23.807,61.2162,0.015085
23.840,61.2005,0.015085
23.870,61.1872,0.015085
23.902,61.1734,0.015085
23.932,61.1612,0.015085
23.962,61.1499,0.014614
23.993,61.1387,0.014614
24.024,61.1283,0.014614
24.055,61.1186,0.014614
24.087,61.1097,0.014614
24.118,61.1013,0.014614
24.149,61.0939,0.014614
24.181,61.0870,0.014294
24.211,61.0812,0.014294
24.242,61.0758,0.014294
24.272,61.0715,0.014294
24.303,61.0677,0.014294
24.333,61.0646,0.014294
24.366,61.0621,0.014294
24.396,61.0605,0.014294
24.427,61.0596,0.014040
24.459,61.0593,0.014040
24.490,61.0593,0.014040
24.521,61.0593,0.014040
24.552,61.0593,0.014040
24.582,61.0593,0.014040
24.614,61.0598,0.014040
24.644,61.0611,0.014040
24.675,61.0629,0.014040
24.705,61.0655,0.013899
24.737,61.0689,0.013899
24.768,61.0731,0.013899
24.799,61.0779,0.013899
24.830,61.0835,0.013899
24.861,61.0897,0.013899
24.900,61.0988,0.013899
24.939,61.1087,0.013626
24.970,61.1178,0.013626
25.000,61.1272,0.013626
25.031,61.1374,0.013626
25.062,61.1485,0.013626
25.093,61.1600,0.013626
25.125,61.1729,0.013626
25.155,61.1858,0.013626
25.188,61.2004,0.013626
25.218,61.2149,0.013222
25.250,61.2310,0.013222
25.281,61.2464,0.013222
25.312,61.2639,0.013222
25.343,61.2812,0.013222
25.374,61.3001,0.013222
25.405,61.3182,0.013222
25.436,61.3385,0.013222
25.467,61.3590,0.013222
25.498,61.3801,0.012826
25.529,61.4021,0.012826
25.563,61.4273,0.012826
25.590,61.4474,0.012826
25.624,61.4748,0.012826
25.652,61.4971,0.012826
25.683,61.5221,0.012826
25.714,61.5486,0.012826
25.745,61.5752,0.012318
