Elapsed Time (s),Position (mm),Force (N)
-0.020,60.9501,-0.000537
0.000,60.9501,-0.000537
0.028,60.9501,-0.000537
0.045,60.9501,-0.000537
0.062,60.9501,-0.000537
0.077,60.9501,-0.000537
0.093,60.9501,-0.000537
0.109,60.9501,-0.000537
0.127,60.9501,-0.000537
0.152,60.9501,-0.000537
0.174,60.9501,-0.000537
0.190,60.9501,-0.000537
0.214,60.9501,-0.000537
0.244,60.9501,-0.000405
0.275,60.9501,-0.000405
0.305,60.9501,-0.000405
0.320,60.9501,-0.000405
0.336,60.9501,-0.000405
0.352,60.9501,-0.000405
0.368,60.9501,-0.000405
0.384,60.9501,-0.000405
0.399,60.9501,-0.000405
0.436,60.9501,-0.000405
0.461,60.9501,-0.000405
0.492,60.9501,-0.000377
0.508,60.9501,-0.000377
0.524,60.9501,-0.000377
0.547,60.9501,-0.000377
0.569,60.9501,-0.000377
0.588,60.9501,-0.000377
0.607,60.9501,-0.000377
0.623,60.9501,-0.000377
0.647,60.9501,-0.000377
0.668,60.9501,-0.000377
0.684,60.9501,-0.000377
0.700,60.9501,-0.000377
0.716,60.9501,-0.000377
0.732,60.9501,-0.000377
0.748,60.9501,-0.000386
0.764,60.9501,-0.000386
0.780,60.9501,-0.000386
0.797,60.9501,-0.000386
0.812,60.9501,-0.000386
0.828,60.9501,-0.000386
0.844,60.9501,-0.000386
0.860,60.9501,-0.000386
0.876,60.9501,-0.000386
0.892,60.9501,-0.000386
0.908,60.9501,-0.000386
0.925,60.9501,-0.000386
0.955,60.9501,-0.000386
0.971,60.9501,-0.000386
0.987,60.9501,-0.000386
1.003,60.9501,-0.000386
1.020,60.9501,-0.000386
1.050,60.9501,-0.000386
1.067,60.9501,-0.000386
1.083,60.9501,-0.000386
1.099,60.9501,-0.000386
1.115,60.9501,-0.000386
1.131,60.9501,-0.000386
1.147,60.9501,-0.000386
1.163,60.9501,-0.000386
1.180,60.9501,-0.000386
1.195,60.9501,-0.000386
1.212,60.9501,-0.000386
1.227,60.9501,-0.000386
1.243,60.9501,-0.000377
1.259,60.9501,-0.000377
1.275,60.9501,-0.000377
1.291,60.9501,-0.000377
1.307,60.9501,-0.000377
1.323,60.9501,-0.000377
1.339,60.9501,-0.000377
1.355,60.9501,-0.000377
1.371,60.9501,-0.000377
1.387,60.9501,-0.000377
1.409,60.9501,-0.000377
1.437,60.9501,-0.000377
1.453,60.9501,-0.000377
1.468,60.9501,-0.000377
1.484,60.9501,-0.000377
1.514,60.9501,-0.000358
1.531,60.9501,-0.000358
1.546,60.9501,-0.000358
1.563,60.9501,-0.000358
1.579,60.9501,-0.000358
1.595,60.9501,-0.000358
1.610,60.9501,-0.000358
1.627,60.9501,-0.000358
1.643,60.9501,-0.000358
1.659,60.9501,-0.000358
1.674,60.9501,-0.000358
1.690,60.9501,-0.000358
1.709,60.9501,-0.000358
1.725,60.9501,-0.000358
1.747,60.9501,-0.000358
1.777,60.9501,-0.000339
1.808,60.9501,-0.000339
1.839,60.9501,-0.000339
1.870,60.9501,-0.000339
1.901,60.9501,-0.000339
1.932,60.9501,-0.000339
1.947,60.9501,-0.000339
1.962,60.9501,-0.000339
1.978,60.9501,-0.000348
1.995,60.9501,-0.000348
2.010,60.9501,-0.000348
2.027,60.9501,-0.000348
2.043,60.9501,-0.000348
2.070,60.9501,-0.000348
2.086,60.9501,-0.000348
2.101,60.9501,-0.000348
2.118,60.9501,-0.000348
2.134,60.9501,-0.000348
2.164,60.9501,-0.000348
2.181,60.9501,-0.000348
2.197,60.9501,-0.000348
2.214,60.9501,-0.000348
2.229,60.9501,-0.000358
2.245,60.9501,-0.000358
2.262,60.9501,-0.000358
2.278,60.9501,-0.000358
2.294,60.9501,-0.000358
2.309,60.9501,-0.000358
2.328,60.9501,-0.000358
2.343,60.9501,-0.000358
2.365,60.9501,-0.000358
2.396,60.9501,-0.000358
2.426,60.9501,-0.000358
2.458,60.9501,-0.000358
2.489,60.9501,-0.000320
2.520,60.9501,-0.000320
2.551,60.9501,-0.000320
2.581,60.9501,-0.000320
2.597,60.9501,-0.000320
2.626,60.9501,-0.000320
2.643,60.9501,-0.000320
2.658,60.9501,-0.000320
2.674,60.9501,-0.000320
2.690,60.9501,-0.000320
2.707,60.9501,-0.000320
2.722,60.9501,-0.000292
2.738,60.9501,-0.000292
2.754,60.9501,-0.000292
2.770,60.9501,-0.000292
2.786,60.9501,-0.000292
2.802,60.9501,-0.000292
2.819,60.9501,-0.000292
2.835,60.9501,-0.000292
2.850,60.9501,-0.000292
2.866,60.9501,-0.000292
2.883,60.9501,-0.000292
2.899,60.9501,-0.000292
2.916,60.9501,-0.000292
2.939,60.9501,-0.000292
2.969,60.9501,-0.000292
3.000,60.9501,-0.000311
3.016,60.9501,-0.000311
3.047,60.9501,-0.000311
3.063,60.9501,-0.000311
3.079,60.9501,-0.000311
3.110,60.9501,-0.000311
3.143,60.9501,-0.000311
3.172,60.9501,-0.000311
3.188,60.9501,-0.000311
3.203,60.9501,-0.000311
3.236,60.9501,-0.000358
3.252,60.9501,-0.000358
3.279,60.9501,-0.000358
3.299,60.9501,-0.000358
3.326,60.9501,-0.000358
3.346,60.9501,-0.000358
3.362,60.9501,-0.000358
3.378,60.9501,-0.000358
3.394,60.9501,-0.000358
3.410,60.9501,-0.000358
3.426,60.9501,-0.000358
3.442,60.9501,-0.000358
3.458,60.9501,-0.000358
3.474,60.9501,-0.000358
3.490,60.9501,-0.000339
3.506,60.9501,-0.000339
3.522,60.9501,-0.000339
3.538,60.9501,-0.000339
3.554,60.9501,-0.000339
3.570,60.9501,-0.000339
3.586,60.9501,-0.000339
3.603,60.9501,-0.000339
3.633,60.9501,-0.000339
3.650,60.9501,-0.000339
3.673,60.9501,-0.000339
3.688,60.9501,-0.000339
3.704,60.9501,-0.000339
3.720,60.9501,-0.000339
3.736,60.9501,-0.000339
3.752,60.9501,-0.000442
3.768,60.9501,-0.000442
3.784,60.9501,-0.000442
3.800,60.9501,-0.000442
3.816,60.9501,-0.000442
3.832,60.9501,-0.000442
3.849,60.9501,-0.000442
3.867,60.9501,-0.000442
3.895,60.9501,-0.000442
3.912,60.9501,-0.000442
3.928,60.9501,-0.000442
3.944,60.9501,-0.000442
3.960,60.9501,-0.000442
3.976,60.9501,-0.000442
3.991,60.9501,-0.000442
4.009,60.9501,-0.000602
4.024,60.9501,-0.000602
4.043,60.9498,-0.000602
4.066,60.9492,-0.000602
4.097,60.9477,-0.000602
4.128,60.9456,-0.000602
4.159,60.9425,-0.000602
4.175,60.9408,-0.000602
4.205,60.9371,-0.000602
4.225,60.9340,-0.000602
4.242,60.9311,-0.000602
4.258,60.9285,-0.000621
4.273,60.9255,-0.000621
4.291,60.9220,-0.000621
4.313,60.9172,-0.000621
4.344,60.9100,-0.000621
4.359,60.9060,-0.000621
4.375,60.9022,-0.000621
4.405,60.8934,-0.000621
4.420,60.8891,-0.000621
4.437,60.8836,-0.000621
4.468,60.8736,-0.000621
4.484,60.8680,-0.000621
4.515,60.8569,0.000998
4.530,60.8507,0.000998
4.546,60.8450,0.000998
4.561,60.8388,0.000998
4.577,60.8320,0.000998
4.594,60.8251,0.000998
4.609,60.8181,0.000998
4.625,60.8108,0.000998
4.642,60.8031,0.000998
4.657,60.7958,0.000998
4.674,60.7876,0.000998
4.689,60.7800,0.000998
4.708,60.7701,0.000998
4.731,60.7581,0.000998
4.762,60.7413,0.000998
4.782,60.7296,0.003925
4.798,60.7200,0.003925
4.814,60.7107,0.003925
4.830,60.7010,0.003925
4.847,60.6907,0.003925
4.863,60.6807,0.003925
4.885,60.6657,0.003925
4.901,60.6556,0.003925
4.932,60.6343,0.003925
4.963,60.6130,0.003925
4.979,60.6012,0.003925
4.995,60.5893,0.007192
5.025,60.5663,0.007192
5.049,60.5482,0.007192
5.070,60.5316,0.007192
5.086,60.5191,0.007192
5.102,60.5058,0.007192
5.118,60.4929,0.007192
5.134,60.4793,0.007192
5.150,60.4655,0.007192
5.166,60.4520,0.007192
5.182,60.4381,0.007192
5.198,60.4240,0.007192
5.217,60.4069,0.007192
5.241,60.3843,0.012256
5.262,60.3652,0.012256
5.278,60.3496,0.012256
5.294,60.3345,0.012256
5.310,60.3192,0.012256
5.333,60.2955,0.012256
5.349,60.2801,0.012256
5.365,60.2644,0.012256
5.381,60.2479,0.012256
5.399,60.2285,0.012256
5.428,60.1990,0.012256
5.445,60.1799,0.012256
5.461,60.1627,0.012256
5.477,60.1454,0.012256
5.494,60.1262,0.008218
5.509,60.1093,0.008218
5.525,60.0908,0.008218
5.541,60.0731,0.008218
5.558,60.0543,0.008218
5.573,60.0355,0.008218
5.589,60.0163,0.008218
5.605,59.9980,0.008218
5.621,59.9787,0.008218
5.637,59.9586,0.008218
5.653,59.9382,0.008218
5.669,59.9197,0.008218
5.685,59.8997,0.008218
5.702,59.8776,0.008218
5.721,59.8521,0.008218
5.737,59.8323,0.008218
5.768,59.7919,0.000537
5.798,59.7515,0.000537
5.829,59.7098,0.000537
5.845,59.6876,0.000537
5.861,59.6658,0.000537
5.890,59.6244,0.000537
5.906,59.6016,0.000537
5.922,59.5790,0.000537
5.938,59.5562,0.000537
5.954,59.5315,0.000537
5.970,59.5097,0.000537
5.986,59.4859,-0.000019
6.002,59.4619,-0.000019
6.018,59.4374,-0.000019
6.034,59.4131,-0.000019
6.050,59.3890,-0.000019
6.067,59.3627,-0.000019
6.082,59.3389,-0.000019
6.098,59.3135,-0.000019
6.114,59.2885,-0.000019
6.130,59.2620,-0.000019
6.146,59.2371,-0.000019
6.163,59.2110,-0.000019
6.178,59.1861,-0.000019
6.195,59.1582,-0.000019
6.217,59.1220,-0.000019
6.233,59.0956,0.000038
6.263,59.0441,0.000038
6.293,58.9919,0.000038
6.310,58.9629,0.000038
6.341,58.9096,0.000038
6.371,58.8536,0.000038
6.387,58.8268,0.000038
6.403,58.7993,0.000038
6.433,58.7446,0.000038
6.449,58.7143,0.000038
6.465,58.6855,0.000179
6.481,58.6554,0.000179
6.497,58.6259,0.000179
6.513,58.5950,0.000179
6.529,58.5656,0.000179
6.545,58.5346,0.000179
6.561,58.5035,0.000179
6.577,58.4732,0.000179
6.593,58.4421,0.000179
6.609,58.4116,0.000179
6.625,58.3799,0.000179
6.641,58.3477,0.000179
6.657,58.3171,0.000179
6.673,58.2848,0.000179
6.689,58.2518,0.000179
6.704,58.2202,0.000179
6.720,58.1877,0.000292
6.737,58.1529,0.000292
6.753,58.1211,0.000292
6.769,58.0881,0.000292
6.784,58.0555,0.000292
6.800,58.0215,0.000292
6.817,57.9873,0.000292
6.833,57.9533,0.000292
6.848,57.9198,0.000292
6.865,57.8850,0.000292
6.881,57.8509,0.000292
6.897,57.8171,0.000292
6.913,57.7846,0.000292
6.930,57.7482,0.000292
6.960,57.6842,0.000292
6.992,57.6212,0.000311
7.008,57.5883,0.000311
7.024,57.5562,0.000311
7.040,57.5246,0.000311
7.062,57.4768,0.000311
7.085,57.4346,0.000311
7.103,57.3989,0.000311
7.120,57.3672,0.000311
7.135,57.3372,0.000311
7.152,57.3056,0.000311
7.167,57.2764,0.000311
7.186,57.2417,0.000311
7.209,57.1974,0.000311
7.224,57.1695,0.000292
7.254,57.1135,0.000292
7.285,57.0591,0.000292
7.316,57.0030,0.000292
7.346,56.9500,0.000292
7.376,56.8960,0.000292
7.392,56.8698,0.000292
7.407,56.8428,0.000292
7.424,56.8139,0.000292
7.440,56.7875,0.000292
7.455,56.7614,0.000292
7.471,56.7348,0.000358
7.487,56.7082,0.000358
7.504,56.6812,0.000358
7.519,56.6560,0.000358
7.544,56.6160,0.000358
7.563,56.5848,0.000358
7.579,56.5601,0.000358
7.595,56.5347,0.000358
7.611,56.5077,0.000358
7.641,56.4625,0.000358
7.671,56.4171,0.000358
7.687,56.3935,0.000358
7.702,56.3699,0.000358
7.719,56.3455,0.000471
7.734,56.3225,0.000471
7.750,56.2994,0.000471
7.767,56.2758,0.000471
7.782,56.2532,0.000471
7.804,56.2219,0.000471
7.825,56.1912,0.000471
7.846,56.1631,0.000471
7.863,56.1393,0.000471
7.879,56.1189,0.000471
7.895,56.0973,0.000471
7.910,56.0761,0.000471
7.927,56.0543,0.000471
7.943,56.0334,0.000471
7.958,56.0133,0.000471
7.974,55.9925,0.000602
7.991,55.9712,0.000602
8.007,55.9512,0.000602
8.022,55.9313,0.000602
8.038,55.9114,0.000602
8.054,55.8918,0.000602
8.070,55.8724,0.000602
8.086,55.8527,0.000602
8.102,55.8339,0.000602
8.119,55.8146,0.000602
8.135,55.7960,0.000602
8.150,55.7779,0.000602
8.166,55.7597,0.000602
8.183,55.7407,0.000602
8.198,55.7235,0.000602
8.214,55.7054,0.000602
8.230,55.6881,0.000706
8.247,55.6699,0.000706
8.262,55.6534,0.000706
8.278,55.6365,0.000706
8.296,55.6177,0.000706
8.321,55.5918,0.000706
8.342,55.5706,0.000706
8.358,55.5542,0.000706
8.374,55.5388,0.000706
8.390,55.5232,0.000706
8.407,55.5072,0.000706
8.422,55.4918,0.000706
8.438,55.4774,0.000706
8.454,55.4627,0.000706
8.470,55.4479,0.000706
8.486,55.4331,0.000706
8.502,55.4191,0.000762
8.518,55.4047,0.000762
8.534,55.3907,0.000762
8.551,55.3770,0.000762
8.566,55.3641,0.000762
8.582,55.3507,0.000762
8.598,55.3371,0.000762
8.614,55.3246,0.000762
8.630,55.3115,0.000762
8.646,55.2992,0.000762
8.662,55.2863,0.000762
8.678,55.2749,0.000762
8.694,55.2622,0.000762
8.710,55.2512,0.000762
8.726,55.2389,0.000762
8.742,55.2280,0.000762
8.758,55.2171,0.000810
8.774,55.2062,0.000810
8.791,55.1944,0.000810
8.816,55.1778,0.000810
8.838,55.1636,0.000810
8.855,55.1535,0.000810
8.878,55.1387,0.000810
8.894,55.1295,0.000810
8.925,55.1119,0.000810
8.955,55.0949,0.000810
8.988,55.0774,0.000810
9.017,55.0629,0.000810
9.033,55.0550,0.000828
9.049,55.0471,0.000828
9.065,55.0399,0.000828
9.080,55.0332,0.000828
9.096,55.0262,0.000828
9.126,55.0133,0.000828
9.142,55.0068,0.000828
9.158,55.0005,0.000828
9.174,54.9945,0.000828
9.190,54.9883,0.000828
9.217,54.9785,0.000828
9.234,54.9730,0.000828
9.250,54.9679,0.000894
9.266,54.9628,0.000894
9.286,54.9566,0.000894
9.311,54.9496,0.000894
9.330,54.9446,0.000894
9.346,54.9405,0.000894
9.362,54.9368,0.000894
9.378,54.9330,0.000894
9.394,54.9296,0.000894
9.410,54.9261,0.000894
9.426,54.9232,0.000894
9.442,54.9203,0.000894
9.458,54.9177,0.000894
9.474,54.9150,0.000894
9.490,54.9127,0.000894
9.506,54.9108,0.000932
9.522,54.9088,0.000932
9.538,54.9069,0.000932
9.554,54.9055,0.000932
9.570,54.9041,0.000932
9.586,54.9029,0.000932
9.602,54.9020,0.000932
9.618,54.9012,0.000932
9.634,54.9007,0.000932
9.653,54.9002,0.000932
9.669,54.9001,0.000932
9.697,54.9001,0.000932
9.714,54.9001,0.000932
9.730,54.9001,0.000932
9.746,54.9001,0.000932
9.774,54.9001,0.000875
9.790,54.9001,0.000875
9.805,54.9001,0.000875
9.822,54.9001,0.000875
9.840,54.9001,0.000875
9.868,54.9001,0.000875
9.886,54.9001,0.000875
9.902,54.9001,0.000875
9.917,54.9001,0.000875
9.933,54.9001,0.000875
9.950,54.9001,0.000875
9.965,54.9001,0.000875
9.981,54.9001,0.000875
9.997,54.9001,0.000951
10.014,54.9001,0.000951
10.032,54.9001,0.000951
10.047,54.9001,0.000951
10.069,54.9001,0.000951
10.101,54.9001,0.000951
10.116,54.9001,0.000951
10.146,54.9001,0.000951
10.162,54.9001,0.000951
10.193,54.9001,0.000951
10.208,54.9001,0.000951
10.224,54.9001,0.000951
10.240,54.9001,0.001073
10.271,54.9001,0.001073
10.302,54.9001,0.001073
10.331,54.9001,0.001073
10.347,54.9001,0.001073
10.363,54.9001,0.001073
10.380,54.9001,0.001073
10.396,54.9001,0.001073
10.412,54.9001,0.001073
10.427,54.9001,0.001073
10.443,54.9001,0.001073
10.460,54.9003,0.001073
10.475,54.9006,0.001073
10.491,54.9012,0.001045
10.507,54.9020,0.001045
10.524,54.9029,0.001045
10.540,54.9041,0.001045
10.555,54.9053,0.001045
10.571,54.9069,0.001045
10.587,54.9086,0.001045
10.604,54.9106,0.001045
10.619,54.9126,0.001045
10.636,54.9150,0.001045
10.652,54.9176,0.001045
10.667,54.9201,0.001045
10.683,54.9229,0.001045
10.700,54.9261,0.001045
10.715,54.9294,0.001045
10.731,54.9328,0.000885
10.747,54.9366,0.000885
10.763,54.9403,0.000885
10.779,54.9445,0.000885
10.796,54.9486,0.000885
10.811,54.9530,0.000885
10.827,54.9576,0.000885
10.851,54.9648,0.000885
10.868,54.9702,0.000885
10.883,54.9754,0.000885
10.900,54.9810,0.000885
10.915,54.9865,0.000885
10.931,54.9924,0.000885
10.948,54.9988,0.000885
10.963,55.0049,0.000885
10.979,55.0112,0.000781
10.995,55.0178,0.000781
11.011,55.0247,0.000781
11.027,55.0318,0.000781
11.043,55.0390,0.000781
11.059,55.0466,0.000781
11.075,55.0541,0.000781
11.092,55.0623,0.000781
11.108,55.0701,0.000781
11.123,55.0779,0.000781
11.142,55.0884,0.000781
11.160,55.0979,0.000781
11.185,55.1120,0.000781
11.204,55.1226,0.000781
11.219,55.1316,0.000781
11.235,55.1408,0.000885
11.251,55.1506,0.000885
11.269,55.1619,0.000885
11.294,55.1779,0.000885
11.315,55.1915,0.000885
11.331,55.2023,0.000885
11.348,55.2140,0.000885
11.372,55.2307,0.000885
11.394,55.2467,0.000885
11.410,55.2581,0.000885
11.426,55.2703,0.000885
11.442,55.2821,0.000885
11.458,55.2945,0.000885
11.474,55.3073,0.000904
11.490,55.3193,0.000904
11.506,55.3322,0.000904
11.525,55.3474,0.000904
11.541,55.3610,0.000904
11.556,55.3741,0.000904
11.587,55.4005,0.000904
11.603,55.4147,0.000904
11.634,55.4421,0.000904
11.650,55.4571,0.000904
11.666,55.4712,0.000904
11.682,55.4865,0.000904
11.698,55.5015,0.000904
11.714,55.5172,0.000904
11.730,55.5325,0.000857
11.746,55.5481,0.000857
11.764,55.5662,0.000857
11.789,55.5914,0.000857
11.810,55.6135,0.000857
11.829,55.6329,0.000857
11.844,55.6496,0.000857
11.867,55.6740,0.000857
11.882,55.6901,0.000857
11.897,55.7075,0.000857
11.913,55.7248,0.000857
11.944,55.7601,0.000857
11.975,55.7949,0.000857
11.991,55.8144,0.000857
12.007,55.8330,0.000857
12.039,55.8705,0.000857
12.069,55.9084,0.000857
12.085,55.9279,0.000857
12.101,55.9475,0.000857
12.117,55.9682,0.000857
12.147,56.0065,0.000857
12.178,56.0473,0.000857
12.194,56.0688,0.000857
12.210,56.0889,0.000857
12.226,56.1108,0.000762
12.242,56.1331,0.000762
12.258,56.1541,0.000762
12.274,56.1767,0.000762
12.291,56.2005,0.000762
12.306,56.2216,0.000762
12.322,56.2439,0.000762
12.338,56.2668,0.000762
12.358,56.2961,0.000762
12.381,56.3293,0.000762
12.402,56.3607,0.000762
12.418,56.3848,0.000762
12.434,56.4082,0.000762
12.450,56.4334,0.000762
12.474,56.4708,0.000762
12.490,56.4949,0.000762
12.506,56.5197,0.000659
12.522,56.5441,0.000659
12.538,56.5694,0.000659
12.554,56.5954,0.000659
12.570,56.6207,0.000659
12.586,56.6468,0.000659
12.602,56.6751,0.000659
12.618,56.6994,0.000659
12.634,56.7271,0.000659
12.650,56.7524,0.000659
12.666,56.7792,0.000659
12.682,56.8061,0.000659
12.697,56.8334,0.000659
12.715,56.8630,0.000659
12.735,56.8977,0.000659
12.750,56.9256,0.000574
12.780,56.9785,0.000574
12.796,57.0055,0.000574
12.811,57.0332,0.000574
12.841,57.0876,0.000574
12.858,57.1176,0.000574
12.873,57.1465,0.000574
12.889,57.1755,0.000574
12.907,57.2085,0.000574
12.922,57.2363,0.000574
12.937,57.2657,0.000574
12.954,57.2961,0.000574
12.970,57.3285,0.000574
12.985,57.3571,0.000574
13.002,57.3892,0.000574
13.030,57.4447,0.000424
13.045,57.4743,0.000424
13.062,57.5077,0.000424
13.077,57.5381,0.000424
13.095,57.5744,0.000424
13.110,57.6040,0.000424
13.137,57.6580,0.000424
13.158,57.7029,0.000424
13.184,57.7565,0.000424
13.205,57.7999,0.000424
13.221,57.8337,0.000424
13.238,57.8683,0.000424
13.254,57.9026,0.000311
13.271,57.9385,0.000311
13.286,57.9702,0.000311
13.301,58.0028,0.000311
13.317,58.0359,0.000311
13.334,58.0719,0.000311
13.355,58.1139,0.000311
13.371,58.1460,0.000311
13.400,58.2080,0.000311
13.416,58.2381,0.000311
13.447,58.2993,0.000311
13.463,58.3326,0.000311
13.493,58.3894,0.000282
13.510,58.4224,0.000282
13.525,58.4529,0.000282
13.542,58.4846,0.000282
13.558,58.5156,0.000282
13.583,58.5647,0.000282
13.599,58.5935,0.000282
13.615,58.6227,0.000282
13.631,58.6523,0.000282
13.648,58.6843,0.000282
13.664,58.7117,0.000282
13.679,58.7400,0.000282
13.695,58.7690,0.000282
13.711,58.7977,0.000282
13.727,58.8264,0.000282
13.744,58.8547,0.000245
13.759,58.8824,0.000245
13.776,58.9110,0.000245
13.791,58.9378,0.000245
13.807,58.9652,0.000245
13.823,58.9925,0.000245
13.839,59.0197,0.000245
13.855,59.0466,0.000245
13.871,59.0739,0.000245
13.887,59.0998,0.000245
13.903,59.1261,0.000245
13.919,59.1520,0.000245
13.936,59.1788,0.000245
13.951,59.2043,0.000245
13.968,59.2299,0.000245
13.984,59.2565,0.000169
13.999,59.2810,0.000169
14.017,59.3081,0.000169
14.032,59.3308,0.000169
14.062,59.3762,0.000169
14.080,59.4033,0.000169
14.095,59.4265,0.000169
14.111,59.4503,0.000169
14.139,59.4928,0.000169
14.162,59.5265,0.000169
14.184,59.5569,0.000169
14.203,59.5831,0.000169
14.218,59.6045,0.000169
14.234,59.6270,0.000066
14.250,59.6491,0.000066
14.267,59.6716,0.000066
14.282,59.6929,0.000066
14.298,59.7148,0.000066
14.314,59.7355,0.000066
14.330,59.7576,0.000066
14.346,59.7781,0.000066
14.362,59.7993,0.000066
14.378,59.8191,0.000066
14.396,59.8416,0.000066
14.417,59.8688,0.000066
14.448,59.9077,0.000066
14.478,59.9438,-0.000028
14.495,59.9638,-0.000028
14.529,60.0048,-0.000028
14.556,60.0354,-0.000028
14.572,60.0528,-0.000028
14.587,60.0711,-0.000028
14.603,60.0885,-0.000028
14.619,60.1056,-0.000028
14.650,60.1388,-0.000028
14.666,60.1560,-0.000028
14.696,60.1881,-0.000028
14.715,60.2075,-0.000028
14.742,60.2345,-0.000085
14.760,60.2533,-0.000085
14.776,60.2686,-0.000085
14.792,60.2836,-0.000085
14.808,60.2988,-0.000085
14.824,60.3147,-0.000085
14.840,60.3292,-0.000085
14.856,60.3441,-0.000085
14.872,60.3582,-0.000085
14.888,60.3731,-0.000085
14.904,60.3876,-0.000085
14.920,60.4009,-0.000085
14.936,60.4150,-0.000085
14.952,60.4288,-0.000085
14.968,60.4417,-0.000151
14.984,60.4549,-0.000151
15.000,60.4684,-0.000151
15.016,60.4813,-0.000151
15.032,60.4934,-0.000151
15.048,60.5068,-0.000151
15.064,60.5182,-0.000151
15.080,60.5301,-0.000151
15.096,60.5425,-0.000151
15.112,60.5539,-0.000151
15.129,60.5666,-0.000151
15.158,60.5872,-0.000151
15.176,60.5986,-0.000151
15.198,60.6142,-0.000151
15.222,60.6294,-0.000151
15.237,60.6385,-0.000151
15.253,60.6485,-0.000179
15.269,60.6584,-0.000179
15.285,60.6679,-0.000179
15.302,60.6776,-0.000179
15.318,60.6873,-0.000179
15.345,60.7022,-0.000179
15.365,60.7128,-0.000179
15.383,60.7227,-0.000179
15.400,60.7308,-0.000179
15.421,60.7420,-0.000179
15.437,60.7492,-0.000179
15.452,60.7566,-0.000179
15.483,60.7709,-0.000217
15.499,60.7776,-0.000217
15.529,60.7905,-0.000217
