Elapsed Time (s),Position (mm),Force (N)
-0.016,51.7000,0.000546
0.001,51.7000,0.000734
0.016,51.7000,0.000734
0.039,51.7000,0.000734
0.055,51.7000,0.000734
0.078,51.7000,0.000734
0.096,51.7000,0.000734
0.118,51.7000,0.000734
0.134,51.7000,0.000734
0.150,51.7000,0.000734
0.166,51.7000,0.000734
0.183,51.7000,0.000734
0.203,51.7000,0.000734
0.234,51.7000,0.000734
0.249,51.7000,0.000734
0.265,51.7000,0.000828
0.280,51.7000,0.000828
0.312,51.7000,0.000828
0.327,51.7000,0.000828
0.342,51.7000,0.000828
0.361,51.7000,0.000828
0.389,51.7000,0.000828
0.406,51.7000,0.000828
0.426,51.7000,0.000828
0.450,51.7000,0.000828
0.470,51.7000,0.000828
0.487,51.7000,0.000828
0.513,51.7000,0.000828
0.543,51.7000,0.000819
0.574,51.7000,0.000819
0.589,51.7000,0.000819
0.605,51.7000,0.000819
0.636,51.7000,0.000819
0.652,51.7000,0.000819
0.673,51.7000,0.000819
0.689,51.7000,0.000819
0.705,51.7000,0.000819
0.720,51.7000,0.000819
0.738,51.7000,0.000819
0.760,51.7000,0.000819
0.791,51.7000,0.000866
0.807,51.7000,0.000866
0.822,51.7000,0.000866
0.852,51.7000,0.000866
0.868,51.7000,0.000866
0.899,51.7000,0.000866
0.930,51.7000,0.000866
0.960,51.7000,0.000866
0.979,51.7000,0.000866
1.007,51.7000,0.000951
1.024,51.7000,0.000951
1.042,51.7000,0.000951
1.061,51.7000,0.000951
1.085,51.7000,0.000951
1.105,51.7000,0.000951
1.121,51.7000,0.000951
1.137,51.7000,0.000951
1.152,51.7000,0.000951
1.168,51.7000,0.000951
1.185,51.7000,0.000951
1.208,51.7000,0.000951
1.231,51.7000,0.000951
1.247,51.7000,0.000951
1.262,51.7000,0.000941
1.279,51.7000,0.000941
1.294,51.7000,0.000941
1.310,51.7000,0.000941
1.326,51.7000,0.000941
1.342,51.7000,0.000941
1.359,51.7000,0.000941
1.379,51.7000,0.000941
1.410,51.7000,0.000941
1.426,51.7000,0.000941
1.441,51.7000,0.000941
1.457,51.7000,0.000941
1.487,51.7000,0.000941
1.504,51.7000,0.000941
1.533,51.7000,0.000941
1.551,51.7000,0.000941
1.567,51.7000,0.000941
1.583,51.7000,0.000941
1.598,51.7000,0.000941
1.615,51.7000,0.000941
1.630,51.7000,0.000941
1.647,51.7000,0.000941
1.663,51.7000,0.000941
1.679,51.7000,0.000941
1.694,51.7000,0.000941
1.710,51.7000,0.000941
1.728,51.7000,0.000941
1.750,51.7000,0.000941
1.766,51.7000,0.000941
1.788,51.7000,0.000951
1.812,51.7000,0.000951
1.843,51.7000,0.000951
1.859,51.7000,0.000951
1.889,51.7000,0.000951
1.920,51.7000,0.000951
1.950,51.7000,0.000951
1.981,51.7000,0.000951
2.011,51.7000,0.000941
2.028,51.7000,0.000941
2.044,51.7000,0.000941
2.073,51.7000,0.000941
2.090,51.7000,0.000941
2.106,51.7000,0.000941
2.122,51.7000,0.000941
2.138,51.7000,0.000941
2.157,51.7000,0.000941
2.183,51.7000,0.000941
2.202,51.7000,0.000941
2.218,51.7000,0.000941
2.234,51.7000,0.000941
2.250,51.7000,0.000998
2.266,51.7000,0.000998
2.283,51.7000,0.000998
2.308,51.7000,0.000998
2.323,51.7000,0.000998
2.346,51.7000,0.000998
2.362,51.7000,0.000998
2.378,51.7000,0.000998
2.394,51.7000,0.000998
2.410,51.7000,0.000998
2.426,51.7000,0.000998
2.442,51.7000,0.000998
2.458,51.7000,0.000998
2.474,51.7000,0.000998
2.490,51.7000,0.000979
2.506,51.7000,0.000979
2.522,51.7000,0.000979
2.538,51.7000,0.000979
2.554,51.7000,0.000979
2.570,51.7000,0.000979
2.586,51.7000,0.000979
2.602,51.7000,0.000979
2.618,51.7000,0.000979
2.634,51.7000,0.000979
2.650,51.7000,0.000979
2.667,51.7000,0.000979
2.682,51.7000,0.000979
2.698,51.7000,0.000979
2.714,51.7000,0.000979
2.730,51.7000,0.000979
2.746,51.7000,0.001017
2.763,51.7000,0.001017
2.784,51.7000,0.001017
2.807,51.7000,0.001017
2.826,51.7000,0.001017
2.842,51.7000,0.001017
2.865,51.7000,0.001017
2.881,51.7000,0.001017
2.897,51.7000,0.001017
2.913,51.7000,0.001017
2.929,51.7000,0.001017
2.945,51.7000,0.001017
2.961,51.7000,0.001017
2.977,51.7000,0.001017
2.993,51.7000,0.001017
3.011,51.7000,0.001017
3.036,51.7000,0.001064
3.057,51.7000,0.001064
3.073,51.7000,0.001064
3.089,51.7000,0.001064
3.105,51.7000,0.001064
3.121,51.7000,0.001064
3.137,51.7000,0.001064
3.153,51.7000,0.001064
3.169,51.7000,0.001064
3.185,51.7000,0.001064
3.201,51.7000,0.001064
3.217,51.7000,0.001064
3.233,51.7000,0.001064
3.249,51.7000,0.001064
3.265,51.7000,0.000988
3.281,51.7000,0.000988
3.297,51.7000,0.000988
3.313,51.7000,0.000988
3.329,51.7000,0.000988
3.345,51.7000,0.000988
3.361,51.7000,0.000988
3.377,51.7000,0.000988
3.393,51.7000,0.000988
3.422,51.7000,0.000988
3.439,51.7000,0.000988
3.455,51.7000,0.000988
3.471,51.7000,0.000988
3.488,51.7000,0.000988
3.503,51.7000,0.000988
3.518,51.7000,0.001035
3.535,51.7000,0.001035
3.551,51.7000,0.001035
3.567,51.7000,0.001035
3.583,51.7000,0.001035
3.599,51.7000,0.001035
3.615,51.7000,0.001035
3.631,51.7000,0.001035
3.646,51.7000,0.001035
3.663,51.7000,0.001035
3.679,51.7000,0.001035
3.694,51.7000,0.001035
3.710,51.7000,0.001035
3.727,51.7000,0.001035
3.742,51.7000,0.001035
3.758,51.7000,0.000904
3.775,51.7000,0.000904
3.791,51.7000,0.000904
3.806,51.7000,0.000904
3.822,51.7000,0.000904
3.839,51.7000,0.000904
3.856,51.7000,0.000904
3.871,51.7000,0.000904
3.886,51.7000,0.000904
3.903,51.7000,0.000904
3.919,51.7000,0.000904
3.934,51.7000,0.000904
3.950,51.7000,0.000904
3.978,51.7000,0.000904
4.002,51.7000,0.000904
4.024,51.7000,0.000904
4.041,51.7000,0.000555
4.057,51.7000,0.000555
4.073,51.7000,0.000555
4.089,51.7000,0.000555
4.106,51.6999,0.000555
4.132,51.6993,0.000555
4.153,51.6985,0.000555
4.169,51.6976,0.000555
4.186,51.6964,0.000555
4.209,51.6946,0.000555
4.227,51.6930,0.000555
4.256,51.6895,0.000555
4.286,51.6854,0.000358
4.317,51.6803,0.000358
4.347,51.6749,0.000358
4.378,51.6685,0.000358
4.393,51.6651,0.000358
4.410,51.6610,0.000358
4.426,51.6572,0.000358
4.441,51.6533,0.000358
4.457,51.6489,0.000358
4.478,51.6429,0.000358
4.503,51.6353,0.000358
4.522,51.6292,0.000358
4.537,51.6243,0.000358
4.561,51.6158,0.003822
4.576,51.6104,0.003822
4.593,51.6042,0.003822
4.608,51.5982,0.003822
4.624,51.5915,0.003822
4.640,51.5853,0.003822
4.656,51.5785,0.003822
4.672,51.5715,0.003822
4.691,51.5632,0.003822
4.716,51.5515,0.003822
4.737,51.5415,0.003822
4.753,51.5334,0.003822
4.779,51.5201,0.010279
4.801,51.5087,0.010279
4.817,51.4996,0.010279
4.833,51.4911,0.010279
4.849,51.4820,0.010279
4.864,51.4728,0.010279
4.881,51.4632,0.010279
4.896,51.4539,0.010279
4.912,51.4441,0.010279
4.928,51.4340,0.010279
4.944,51.4235,0.010279
4.961,51.4127,0.010279
4.976,51.4025,0.010279
4.992,51.3916,0.010279
5.008,51.3803,0.010279
5.024,51.3695,0.009893
5.040,51.3579,0.009893
5.057,51.3460,0.009893
5.072,51.3347,0.009893
5.088,51.3225,0.009893
5.116,51.3013,0.009893
5.133,51.2883,0.009893
5.148,51.2759,0.009893
5.164,51.2631,0.009893
5.187,51.2439,0.009893
5.210,51.2252,0.009893
5.228,51.2095,0.009893
5.244,51.1955,0.009893
5.260,51.1815,0.009893
5.276,51.1672,0.005930
5.292,51.1525,0.005930
5.308,51.1381,0.005930
5.324,51.1227,0.005930
5.340,51.1077,0.005930
5.356,51.0931,0.005930
5.372,51.0771,0.005930
5.388,51.0621,0.005930
5.404,51.0463,0.005930
5.420,51.0301,0.005930
5.436,51.0132,0.005930
5.452,50.9977,0.005930
5.468,50.9811,0.005930
5.484,50.9630,0.005930
5.500,50.9471,0.005930
5.516,50.9299,0.003342
5.531,50.9127,0.003342
5.552,50.8909,0.003342
5.579,50.8593,0.003342
5.596,50.8409,0.003342
5.613,50.8217,0.003342
5.629,50.8037,0.003342
5.644,50.7857,0.003342
5.672,50.7519,0.003342
5.688,50.7327,0.003342
5.704,50.7132,0.003342
5.719,50.6942,0.003342
5.736,50.6732,0.003342
5.752,50.6540,0.003342
5.768,50.6334,0.001440
5.784,50.6135,0.001440
5.800,50.5918,0.001440
5.816,50.5722,0.001440
5.832,50.5511,0.001440
5.848,50.5300,0.001440
5.865,50.5076,0.001440
5.880,50.4862,0.001440
5.896,50.4646,0.001440
5.912,50.4428,0.001440
5.929,50.4191,0.001440
5.950,50.3906,0.001440
5.980,50.3466,0.001440
5.996,50.3244,0.001440
6.026,50.2807,0.001591
6.042,50.2578,0.001591
6.057,50.2328,0.001591
6.073,50.2111,0.001591
6.104,50.1650,0.001591
6.120,50.1402,0.001591
6.136,50.1158,0.001591
6.153,50.0886,0.001591
6.168,50.0652,0.001591
6.184,50.0391,0.001591
6.200,50.0149,0.001591
6.227,49.9708,0.001591
6.244,49.9418,0.001591
6.274,49.8941,0.001826
6.291,49.8649,0.001826
6.307,49.8397,0.001826
6.323,49.8125,0.001826
6.339,49.7856,0.001826
6.356,49.7532,0.001826
6.383,49.7100,0.001826
6.403,49.6750,0.001826
6.419,49.6462,0.001826
6.436,49.6172,0.001826
6.451,49.5883,0.001826
6.467,49.5614,0.001826
6.483,49.5296,0.001826
6.505,49.4912,0.001826
6.537,49.4334,0.002127
6.567,49.3770,0.002127
6.583,49.3467,0.002127
6.614,49.2868,0.002127
6.630,49.2583,0.002127
6.646,49.2273,0.002127
6.677,49.1657,0.002127
6.692,49.1366,0.002127
6.723,49.0752,0.002127
6.740,49.0420,0.002127
6.755,49.0115,0.002127
6.783,48.9547,0.001996
6.798,48.9225,0.001996
6.815,48.8888,0.001996
6.831,48.8553,0.001996
6.848,48.8180,0.001996
6.864,48.7855,0.001996
6.892,48.7274,0.001996
6.911,48.6860,0.001996
6.927,48.6529,0.001996
6.942,48.6197,0.001996
6.959,48.5861,0.001996
6.974,48.5522,0.001996
6.990,48.5190,0.001996
7.007,48.4847,0.002419
7.023,48.4521,0.002419
7.039,48.4187,0.002419
7.055,48.3859,0.002419
7.071,48.3533,0.002419
7.087,48.3218,0.002419
7.103,48.2893,0.002419
7.118,48.2589,0.002419
7.134,48.2274,0.002419
7.151,48.1946,0.002419
7.166,48.1639,0.002419
7.183,48.1323,0.002419
7.198,48.1021,0.002419
7.215,48.0690,0.002419
7.231,48.0406,0.002419
7.246,48.0105,0.002673
7.262,47.9805,0.002673
7.279,47.9483,0.002673
7.311,47.8907,0.002673
7.326,47.8626,0.002673
7.341,47.8341,0.002673
7.358,47.8035,0.002673
7.374,47.7748,0.002673
7.390,47.7444,0.002673
7.406,47.7180,0.002673
7.422,47.6902,0.002673
7.437,47.6632,0.002673
7.454,47.6342,0.002673
7.469,47.6079,0.002673
7.485,47.5805,0.002673
7.502,47.5512,0.002607
7.518,47.5254,0.002607
7.534,47.4978,0.002607
7.549,47.4726,0.002607
7.566,47.4457,0.002607
7.582,47.4178,0.002607
7.607,47.3776,0.002607
7.637,47.3299,0.002607
7.668,47.2798,0.002607
7.698,47.2338,0.002607
7.714,47.2090,0.002607
7.730,47.1835,0.002607
7.761,47.1376,0.002843
7.777,47.1140,0.002843
7.808,47.0688,0.002843
7.838,47.0241,0.002843
7.854,47.0022,0.002843
7.870,46.9796,0.002843
7.886,46.9563,0.002843
7.901,46.9349,0.002843
7.917,46.9129,0.002843
7.933,46.8905,0.002843
7.950,46.8671,0.002843
7.966,46.8469,0.002843
7.981,46.8260,0.002843
7.997,46.8043,0.003172
8.013,46.7837,0.003172
8.031,46.7598,0.003172
8.054,46.7307,0.003172
8.085,46.6906,0.003172
8.116,46.6529,0.003172
8.147,46.6143,0.003172
8.177,46.5795,0.003172
8.207,46.5424,0.003172
8.224,46.5238,0.003172
8.254,46.4899,0.003455
8.271,46.4696,0.003455
8.300,46.4385,0.003455
8.317,46.4201,0.003455
8.334,46.4023,0.003455
8.349,46.3860,0.003455
8.365,46.3695,0.003455
8.393,46.3402,0.003455
8.409,46.3237,0.003455
8.425,46.3079,0.003455
8.441,46.2921,0.003455
8.457,46.2756,0.003455
8.473,46.2609,0.003455
8.489,46.2459,0.003558
8.505,46.2309,0.003558
8.522,46.2147,0.003558
8.537,46.2006,0.003558
8.553,46.1866,0.003558
8.569,46.1724,0.003558
8.585,46.1581,0.003558
8.602,46.1437,0.003558
8.618,46.1300,0.003558
8.633,46.1171,0.003558
8.649,46.1035,0.003558
8.665,46.0902,0.003558
8.681,46.0777,0.003558
8.697,46.0649,0.003558
8.713,46.0524,0.003558
8.729,46.0399,0.003558
8.745,46.0277,0.003794
8.761,46.0152,0.003794
8.778,46.0033,0.003794
8.793,45.9920,0.003794
8.809,45.9807,0.003794
8.827,45.9677,0.003794
8.854,45.9491,0.003794
8.873,45.9369,0.003794
8.889,45.9264,0.003794
8.905,45.9163,0.003794
8.921,45.9063,0.003794
8.948,45.8897,0.003794
8.964,45.8802,0.003794
8.980,45.8708,0.003794
8.996,45.8619,0.004076
9.013,45.8518,0.004076
9.041,45.8367,0.004076
9.060,45.8270,0.004076
9.076,45.8184,0.004076
9.092,45.8109,0.004076
9.108,45.8032,0.004076
9.124,45.7957,0.004076
9.141,45.7875,0.004076
9.165,45.7768,0.004076
9.196,45.7638,0.004076
9.211,45.7573,0.004076
9.241,45.7453,0.004292
9.273,45.7338,0.004292
9.304,45.7231,0.004292
9.335,45.7133,0.004292
9.366,45.7042,0.004292
9.381,45.6997,0.004292
9.412,45.6917,0.004292
9.430,45.6871,0.004292
9.458,45.6808,0.004292
9.476,45.6772,0.004292
9.502,45.6723,0.004330
9.518,45.6694,0.004330
9.534,45.6667,0.004330
9.550,45.6643,0.004330
9.566,45.6620,0.004330
9.581,45.6600,0.004330
9.598,45.6581,0.004330
9.615,45.6564,0.004330
9.644,45.6538,0.004330
9.662,45.6525,0.004330
9.678,45.6517,0.004330
9.694,45.6510,0.004330
9.709,45.6505,0.004330
9.726,45.6502,0.004330
9.741,45.6501,0.004330
9.757,45.6501,0.004330
9.774,45.6501,0.004255
9.799,45.6501,0.004255
9.814,45.6501,0.004255
9.845,45.6501,0.004255
9.860,45.6501,0.004255
9.891,45.6501,0.004255
9.922,45.6502,0.004255
9.937,45.6504,0.004255
9.968,45.6517,0.004255
9.984,45.6525,0.004255
10.015,45.6548,0.004255
10.045,45.6576,0.004311
10.062,45.6596,0.004311
10.078,45.6616,0.004311
10.093,45.6637,0.004311
10.110,45.6663,0.004311
10.126,45.6688,0.004311
10.141,45.6715,0.004311
10.158,45.6746,0.004311
10.174,45.6776,0.004311
10.190,45.6811,0.004311
10.206,45.6847,0.004311
10.221,45.6882,0.004311
10.240,45.6927,0.004311
10.262,45.6987,0.004311
10.292,45.7071,0.004377
10.308,45.7122,0.004377
10.339,45.7217,0.004377
10.355,45.7273,0.004377
10.371,45.7328,0.004377
10.402,45.7441,0.004377
10.418,45.7501,0.004377
10.449,45.7627,0.004377
10.480,45.7756,0.004377
10.511,45.7896,0.004245
10.526,45.7968,0.004245
10.557,45.8118,0.004245
10.573,45.8197,0.004245
10.602,45.8351,0.004245
10.619,45.8435,0.004245
10.634,45.8521,0.004245
10.650,45.8610,0.004245
10.669,45.8717,0.004245
10.696,45.8879,0.004245
10.714,45.8988,0.004245
10.731,45.9094,0.004245
10.747,45.9189,0.004245
10.762,45.9290,0.004217
10.778,45.9395,0.004217
10.794,45.9503,0.004217
10.810,45.9610,0.004217
10.827,45.9724,0.004217
10.842,45.9835,0.004217
10.860,45.9962,0.004217
10.883,46.0134,0.004217
10.913,46.0358,0.004217
10.929,46.0479,0.004217
10.960,46.0721,0.004217
10.990,46.0973,0.004217
11.021,46.1227,0.004104
11.052,46.1497,0.004104
11.083,46.1769,0.004104
11.114,46.2049,0.004104
11.130,46.2193,0.004104
11.161,46.2490,0.004104
11.176,46.2630,0.004104
11.193,46.2791,0.004104
11.222,46.3081,0.004104
11.245,46.3308,0.004104
11.268,46.3541,0.003935
11.288,46.3758,0.003935
11.304,46.3923,0.003935
11.321,46.4102,0.003935
11.336,46.4263,0.003935
11.352,46.4442,0.003935
11.368,46.4615,0.003935
11.384,46.4793,0.003935
11.400,46.4980,0.003935
11.416,46.5164,0.003935
11.432,46.5340,0.003935
11.448,46.5526,0.003935
11.464,46.5714,0.003935
11.480,46.5908,0.003935
11.496,46.6095,0.003746
11.512,46.6292,0.003746
11.528,46.6501,0.003746
11.544,46.6687,0.003746
11.560,46.6883,0.003746
11.576,46.7092,0.003746
11.592,46.7294,0.003746
11.608,46.7503,0.003746
11.624,46.7700,0.003746
11.640,46.7914,0.003746
11.657,46.8133,0.003746
11.672,46.8337,0.003746
11.688,46.8554,0.003746
11.716,46.8930,0.003746
11.731,46.9145,0.003746
11.747,46.9363,0.003492
11.763,46.9587,0.003492
11.780,46.9827,0.003492
11.808,47.0224,0.003492
11.827,47.0498,0.003492
11.843,47.0738,0.003492
11.860,47.0979,0.003492
11.876,47.1217,0.003492
11.891,47.1444,0.003492
11.907,47.1697,0.003492
11.923,47.1938,0.003492
11.939,47.2178,0.003492
11.955,47.2429,0.003492
11.971,47.2687,0.003492
11.987,47.2926,0.003163
12.003,47.3175,0.003163
12.019,47.3438,0.003163
12.036,47.3710,0.003163
12.054,47.4011,0.003163
12.084,47.4499,0.003163
12.101,47.4772,0.003163
12.131,47.5276,0.003163
12.147,47.5559,0.003163
12.163,47.5837,0.003163
12.179,47.6092,0.003163
12.195,47.6367,0.003163
12.212,47.6662,0.003163
12.241,47.7181,0.003163
12.272,47.7747,0.003022
12.290,47.8062,0.003022
12.319,47.8574,0.003022
12.337,47.8907,0.003022
12.352,47.9192,0.003022
12.368,47.9485,0.003022
12.384,47.9782,0.003022
12.400,48.0096,0.003022
12.416,48.0381,0.003022
12.431,48.0688,0.003022
12.448,48.0995,0.003022
12.464,48.1308,0.003022
12.480,48.1621,0.003022
12.495,48.1927,0.002815
12.512,48.2251,0.002815
12.528,48.2584,0.002815
12.544,48.2877,0.002815
12.560,48.3198,0.002815
12.576,48.3528,0.002815
12.592,48.3855,0.002815
12.608,48.4178,0.002815
12.624,48.4500,0.002815
12.640,48.4858,0.002815
12.655,48.5165,0.002815
12.673,48.5528,0.002815
12.688,48.5839,0.002815
12.705,48.6215,0.002815
12.734,48.6823,0.002485
12.752,48.7195,0.002485
12.769,48.7546,0.002485
12.784,48.7867,0.002485
12.799,48.8190,0.002485
12.829,48.8801,0.002485
12.857,48.9388,0.002485
12.876,48.9743,0.002485
12.892,49.0074,0.002485
12.907,49.0381,0.002485
12.924,49.0714,0.002485
12.940,49.1015,0.002485
12.957,49.1355,0.002485
12.980,49.1803,0.002485
12.996,49.2130,0.002259
13.027,49.2709,0.002259
13.043,49.3013,0.002259
13.074,49.3595,0.002259
13.091,49.3923,0.002259
13.121,49.4473,0.002259
13.152,49.5010,0.002259
13.183,49.5588,0.002259
13.199,49.5863,0.002259
13.230,49.6406,0.002259
13.260,49.6937,0.002203
13.277,49.7209,0.002203
13.307,49.7721,0.002203
13.326,49.8047,0.002203
13.341,49.8285,0.002203
13.356,49.8542,0.002203
13.371,49.8790,0.002203
13.387,49.9050,0.002203
13.403,49.9318,0.002203
13.420,49.9574,0.002203
13.435,49.9827,0.002203
13.452,50.0091,0.002203
13.467,50.0330,0.002203
13.484,50.0581,0.001996
13.499,50.0824,0.001996
13.515,50.1070,0.001996
13.531,50.1313,0.001996
13.548,50.1562,0.001996
13.563,50.1795,0.001996
13.580,50.2041,0.001996
13.596,50.2281,0.001996
13.612,50.2506,0.001996
13.627,50.2734,0.001996
13.643,50.2963,0.001996
13.659,50.3190,0.001996
13.676,50.3424,0.001996
13.692,50.3652,0.001996
13.707,50.3866,0.001996
13.723,50.4083,0.001996
13.740,50.4309,0.001996
13.755,50.4517,0.001996
13.772,50.4743,0.001770
13.787,50.4949,0.001770
13.805,50.5180,0.001770
13.835,50.5565,0.001770
13.851,50.5777,0.001770
13.868,50.5992,0.001770
13.884,50.6189,0.001770
13.899,50.6377,0.001770
13.927,50.6723,0.001770
13.943,50.6921,0.001770
13.959,50.7112,0.001770
13.975,50.7297,0.001770
13.992,50.7490,0.001770
14.008,50.7674,0.001770
14.023,50.7861,0.001610
14.039,50.8037,0.001610
14.055,50.8222,0.001610
14.071,50.8398,0.001610
14.087,50.8574,0.001610
14.103,50.8744,0.001610
14.120,50.8925,0.001610
14.135,50.9094,0.001610
14.151,50.9258,0.001610
14.167,50.9428,0.001610
14.184,50.9595,0.001610
14.199,50.9755,0.001610
14.215,50.9914,0.001610
14.231,51.0070,0.001610
14.247,51.0230,0.001610
14.263,51.0381,0.001610
14.279,51.0534,0.001440
14.295,51.0685,0.001440
14.311,51.0839,0.001440
14.327,51.0985,0.001440
14.343,51.1128,0.001440
14.359,51.1269,0.001440
14.375,51.1412,0.001440
14.391,51.1556,0.001440
14.407,51.1687,0.001440
14.427,51.1867,0.001440
14.453,51.2080,0.001440
14.470,51.2214,0.001440
14.499,51.2447,0.001290
14.517,51.2581,0.001290
14.532,51.2705,0.001290
14.548,51.2816,0.001290
14.564,51.2941,0.001290
14.580,51.3053,0.001290
14.596,51.3168,0.001290
14.612,51.3280,0.001290
14.628,51.3393,0.001290
14.644,51.3499,0.001290
14.660,51.3610,0.001290
14.676,51.3711,0.001290
14.692,51.3817,0.001290
14.708,51.3916,0.001290
14.724,51.4014,0.001290
14.740,51.4114,0.001290
14.756,51.4210,0.001290
14.773,51.4304,0.001290
14.788,51.4390,0.001111
14.804,51.4481,0.001111
14.820,51.4570,0.001111
14.836,51.4653,0.001111
14.852,51.4738,0.001111
14.868,51.4819,0.001111
14.884,51.4898,0.001111
14.900,51.4979,0.001111
14.916,51.5054,0.001111
14.933,51.5133,0.001111
14.949,51.5202,0.001111
14.978,51.5329,0.001111
14.996,51.5407,0.001111
15.013,51.5470,0.001111
15.040,51.5575,0.000753
15.061,51.5653,0.000753
15.087,51.5743,0.000753
15.108,51.5813,0.000753
15.124,51.5862,0.000753
15.140,51.5911,0.000753
15.156,51.5959,0.000753
15.172,51.6004,0.000753
15.192,51.6058,0.000753
15.208,51.6100,0.000753
15.225,51.6140,0.000753
15.255,51.6205,0.000753
15.272,51.6239,0.000753
15.303,51.6297,-0.000188
15.319,51.6326,-0.000188
15.350,51.6372,-0.000188
15.367,51.6395,-0.000188
15.397,51.6430,-0.000188
15.428,51.6457,-0.000188
15.443,51.6470,-0.000188
15.460,51.6479,-0.000188
15.476,51.6487,-0.000188
15.492,51.6493,-0.000188
15.513,51.6499,-0.000188
15.528,51.6501,-0.000188
15.545,51.6501,-0.000188
15.560,51.6501,-0.001431
15.577,51.6501,-0.001431
15.592,51.6501,-0.001431
15.609,51.6501,-0.001431
15.625,51.6501,-0.001431
15.641,51.6501,-0.001431
15.657,51.6501,-0.001431
15.673,51.6501,-0.001431
15.689,51.6501,-0.001431
15.704,51.6501,-0.001431
15.721,51.6501,-0.001431
15.736,51.6501,-0.001412
15.753,51.6501,-0.001412
15.768,51.6501,-0.001412
15.784,51.6501,-0.001412
15.802,51.6501,-0.001412
15.830,51.6501,-0.001412
15.849,51.6501,-0.001412
15.865,51.6501,-0.001412
