Elapsed Time (s),Position (mm),Force (N)
-0.026,75.4094,-0.080148
0.000,75.4094,-0.080148
0.036,75.4094,-0.080148
0.066,75.4094,-0.080148
0.096,75.4094,-0.077203
0.129,75.4094,-0.077203
0.159,75.4094,-0.077203
0.190,75.4094,-0.077203
0.221,75.4094,-0.077203
0.253,75.4094,-0.077203
0.285,75.4094,-0.077203
0.316,75.4094,-0.071801
0.347,75.4094,-0.071801
0.380,75.4094,-0.071801
0.411,75.4094,-0.071801
0.440,75.4094,-0.071801
0.471,75.4094,-0.071801
0.501,75.4094,-0.071801
0.533,75.4094,-0.071801
0.563,75.4094,-0.068131
0.594,75.4094,-0.068131
0.625,75.4094,-0.068131
0.656,75.4094,-0.068131
0.687,75.4094,-0.068131
0.717,75.4094,-0.068131
0.749,75.4094,-0.068131
0.780,75.4094,-0.068131
0.811,75.4094,-0.065421
0.842,75.4094,-0.065421
0.874,75.4094,-0.065421
0.905,75.4094,-0.065421
0.936,75.4094,-0.065421
0.967,75.4094,-0.065421
0.998,75.4094,-0.065421
1.029,75.4094,-0.065421
1.060,75.4094,-0.065421
1.091,75.4094,-0.063332
1.121,75.4094,-0.063332
1.153,75.4094,-0.063332
1.184,75.4094,-0.063332
1.215,75.4094,-0.063332
1.246,75.4094,-0.063332
1.278,75.4094,-0.063332
1.309,75.4094,-0.061619
1.340,75.4094,-0.061619
1.372,75.4094,-0.061619
1.402,75.4094,-0.061619
1.432,75.4094,-0.061619
1.464,75.4094,-0.061619
1.494,75.4094,-0.061619
1.525,75.4094,-0.061619
1.557,75.4094,-0.060170
1.588,75.4094,-0.060170
1.620,75.4094,-0.060170
1.651,75.4094,-0.060170
1.682,75.4094,-0.060170
1.713,75.4094,-0.060170
1.744,75.4094,-0.060170
1.774,75.4094,-0.060170
1.806,75.4094,-0.058843
1.836,75.4094,-0.058843
1.867,75.4094,-0.058843
1.898,75.4094,-0.058843
1.929,75.4094,-0.058843
1.960,75.4094,-0.058843
1.991,75.4094,-0.058843
2.021,75.4094,-0.058843
2.053,75.4094,-0.057657
2.084,75.4094,-0.057657
2.115,75.4094,-0.057657
2.147,75.4094,-0.057657
2.177,75.4094,-0.057657
2.209,75.4094,-0.057657
2.243,75.4094,-0.057657
2.270,75.4094,-0.057657
2.301,75.4094,-0.056716
2.332,75.4094,-0.056716
2.366,75.4094,-0.056716
2.393,75.4094,-0.056716
2.425,75.4094,-0.056716
2.456,75.4094,-0.056716
2.487,75.4094,-0.056716
2.517,75.4094,-0.056716
2.547,75.4094,-0.055898
2.578,75.4094,-0.055898
2.609,75.4094,-0.055898
2.640,75.4094,-0.055898
2.670,75.4094,-0.055898
2.701,75.4094,-0.055898
2.732,75.4094,-0.055898
2.764,75.4094,-0.055898
2.795,75.4094,-0.055145
2.826,75.4094,-0.055145
2.857,75.4094,-0.055145
2.888,75.4094,-0.055145
2.919,75.4094,-0.055145
2.949,75.4094,-0.055145
2.980,75.4094,-0.055145
3.011,75.4094,-0.055145
3.043,75.4094,-0.054411
3.073,75.4094,-0.054411
3.105,75.4094,-0.054411
3.136,75.4094,-0.054411
3.168,75.4094,-0.054411
3.199,75.4094,-0.054411
3.231,75.4094,-0.054411
3.261,75.4094,-0.054411
3.291,75.4094,-0.053752
3.322,75.4094,-0.053752
3.354,75.4094,-0.053752
3.384,75.4094,-0.053752
3.416,75.4094,-0.053752
3.447,75.4094,-0.053752
3.478,75.4094,-0.053752
3.508,75.4094,-0.053752
3.540,75.4094,-0.053159
3.571,75.4094,-0.053159
3.602,75.4094,-0.053159
3.633,75.4094,-0.053159
3.664,75.4094,-0.053159
3.695,75.4094,-0.053159
3.726,75.4094,-0.053159
3.758,75.4094,-0.053159
3.790,75.4094,-0.053159
3.821,75.4094,-0.052538
3.852,75.4094,-0.052538
3.883,75.4094,-0.052538
3.914,75.4094,-0.052538
3.944,75.4094,-0.052538
3.977,75.4094,-0.052538
4.007,75.4094,-0.052538
4.038,75.4094,-0.052538
4.068,75.4094,-0.051936
4.099,75.4089,-0.051936
4.129,75.4077,-0.051936
4.161,75.4058,-0.051936
4.192,75.4031,-0.051936
4.223,75.3998,-0.051936
4.254,75.3957,-0.051936
4.284,75.3909,-0.051936
4.315,75.3854,-0.051936
4.346,75.3790,-0.051145
4.378,75.3720,-0.051145
4.409,75.3641,-0.051145
4.440,75.3558,-0.051145
4.471,75.3466,-0.051145
4.502,75.3367,-0.051145
4.533,75.3260,-0.051145
4.563,75.3147,-0.043354
4.594,75.3028,-0.043354
4.625,75.2902,-0.043354
4.656,75.2766,-0.043354
4.687,75.2625,-0.043354
4.718,75.2471,-0.043354
4.749,75.2315,-0.043354
4.779,75.2156,-0.043354
4.810,75.1986,-0.026453
4.841,75.1809,-0.026453
4.872,75.1618,-0.026453
4.904,75.1421,-0.026453
4.935,75.1222,-0.026453
4.965,75.1015,-0.026453
4.996,75.0802,-0.026453
5.027,75.0575,-0.026453
5.058,75.0349,-0.007425
5.089,75.0111,-0.007425
5.120,74.9868,-0.007425
5.152,74.9610,-0.007425
5.182,74.9358,-0.007425
5.213,74.9090,-0.007425
5.245,74.8814,-0.007425
5.275,74.8531,-0.007425
5.307,74.8250,0.009759
5.338,74.7948,0.009759
5.368,74.7652,0.009759
5.399,74.7342,0.009759
5.430,74.7030,0.009759
5.461,74.6708,0.009759
5.495,74.6336,0.009759
5.520,74.6064,0.009759
5.554,74.5685,0.021776
5.585,74.5336,0.021776
5.618,74.4949,0.021776
5.647,74.4601,0.021776
5.678,74.4220,0.021776
5.710,74.3827,0.021776
5.741,74.3446,0.021776
5.771,74.3050,0.021776
5.803,74.2634,0.028664
5.834,74.2224,0.028664
5.866,74.1802,0.028664
5.897,74.1376,0.028664
5.928,74.0943,0.028664
5.959,74.0496,0.028664
5.989,74.0050,0.028664
6.020,73.9599,0.028664
6.051,73.9147,0.028664
6.082,73.8672,0.034188
6.114,73.8202,0.034188
6.143,73.7761,0.034188
6.174,73.7291,0.034188
6.206,73.6817,0.034188
6.236,73.6364,0.034188
6.267,73.5901,0.034188
6.297,73.5445,0.034188
6.328,73.4985,0.039392
6.359,73.4513,0.039392
6.390,73.4065,0.039392
6.420,73.3600,0.039392
6.452,73.3136,0.039392
6.483,73.2659,0.039392
6.513,73.2213,0.039392
6.545,73.1742,0.039392
6.575,73.1287,0.042140
6.608,73.0796,0.042140
6.638,73.0345,0.042140
6.670,72.9862,0.042140
6.700,72.9408,0.042140
6.733,72.8924,0.042140
6.763,72.8470,0.042140
6.795,72.7990,0.042140
6.826,72.7525,0.032118
6.857,72.7049,0.032118
6.888,72.6593,0.032118
6.919,72.6129,0.032118
6.950,72.5651,0.032118
6.980,72.5208,0.032118
7.011,72.4750,0.032118
7.041,72.4291,0.032118
7.073,72.3821,0.032118
7.103,72.3363,0.014596
7.134,72.2909,0.014596
7.164,72.2439,0.014596
7.195,72.1983,0.014596
7.227,72.1508,0.014596
7.257,72.1051,0.014596
7.288,72.0591,0.014596
7.319,72.0125,0.007142
7.352,71.9624,0.007142
7.382,71.9188,0.007142
7.413,71.8721,0.007142
7.444,71.8258,0.007142
7.476,71.7768,0.007142
7.506,71.7333,0.007142
7.537,71.6894,0.007142
7.568,71.6466,0.006616
7.599,71.6038,0.006616
7.630,71.5616,0.006616
7.661,71.5191,0.006616
7.692,71.4792,0.006616
7.723,71.4390,0.006616
7.754,71.3999,0.006616
7.785,71.3609,0.006616
7.815,71.3249,0.006371
7.847,71.2854,0.006371
7.877,71.2511,0.006371
7.908,71.2144,0.006371
7.939,71.1798,0.006371
7.970,71.1462,0.006371
8.001,71.1123,0.006371
8.033,71.0789,0.006371
8.063,71.0473,0.006201
8.094,71.0164,0.006201
8.125,70.9864,0.006201
8.160,70.9521,0.006201
8.187,70.9275,0.006201
8.218,70.8985,0.006201
8.250,70.8705,0.006201
8.279,70.8445,0.006201
8.309,70.8196,0.006089
8.340,70.7938,0.006089
8.372,70.7689,0.006089
8.403,70.7438,0.006089
8.435,70.7206,0.006089
8.466,70.6977,0.006089
8.496,70.6766,0.006089
8.530,70.6539,0.006089
8.560,70.6342,0.005985
8.590,70.6149,0.005985
8.625,70.5936,0.005985
8.653,70.5771,0.005985
8.687,70.5578,0.005985
8.715,70.5430,0.005985
8.746,70.5265,0.005985
8.778,70.5114,0.005985
8.810,70.4963,0.005938
8.840,70.4830,0.005938
8.872,70.4694,0.005938
8.904,70.4570,0.005938
8.934,70.4456,0.005938
8.965,70.4349,0.005938
8.996,70.4248,0.005938
9.028,70.4153,0.005910
9.058,70.4069,0.005910
9.089,70.3987,0.005910
9.121,70.3914,0.005910
9.151,70.3850,0.005910
9.182,70.3792,0.005910
9.213,70.3744,0.005910
9.244,70.3700,0.005910
9.275,70.3664,0.005910
9.307,70.3635,0.005816
9.339,70.3613,0.005816
9.370,70.3600,0.005816
9.402,70.3594,0.005816
9.432,70.3594,0.005816
9.463,70.3594,0.005816
9.495,70.3594,0.005816
9.525,70.3594,0.005816
9.556,70.3595,0.005769
9.588,70.3604,0.005769
9.619,70.3618,0.005769
9.650,70.3641,0.005769
9.682,70.3672,0.005769
9.711,70.3708,0.005769
9.742,70.3752,0.005769
9.773,70.3803,0.005769
9.803,70.3860,0.005769
9.835,70.3927,0.005684
9.866,70.4000,0.005684
9.895,70.4079,0.005684
9.926,70.4164,0.005684
9.957,70.4258,0.005684
9.988,70.4359,0.005684
10.019,70.4470,0.005684
10.050,70.4587,0.005590
10.079,70.4702,0.005590
10.110,70.4830,0.005590
10.141,70.4970,0.005590
10.172,70.5115,0.005590
10.203,70.5272,0.005590
10.235,70.5432,0.005590
10.268,70.5613,0.005590
10.296,70.5767,0.005543
10.327,70.5953,0.005543
10.358,70.6135,0.005543
10.390,70.6338,0.005543
10.420,70.6539,0.005543
10.451,70.6753,0.005543
10.481,70.6963,0.005543
10.516,70.7214,0.005543
10.543,70.7422,0.005543
10.576,70.7674,0.005392
10.605,70.7903,0.005392
10.636,70.8159,0.005392
10.666,70.8412,0.005392
10.697,70.8680,0.005392
10.729,70.8959,0.005392
10.760,70.9245,0.005392
10.791,70.9531,0.005223
10.822,70.9831,0.005223
10.853,71.0143,0.005223
10.884,71.0450,0.005223
10.915,71.0771,0.005223
10.946,71.1102,0.005223
10.977,71.1428,0.005223
11.009,71.1784,0.005223
11.041,71.2144,0.005016
11.072,71.2501,0.005016
11.104,71.2872,0.005016
11.133,71.3225,0.005016
11.165,71.3609,0.005016
11.195,71.3987,0.005016
11.226,71.4373,0.005016
11.256,71.4767,0.005016
11.288,71.5187,0.004818
11.318,71.5590,0.004818
11.348,71.6001,0.004818
11.379,71.6435,0.004818
11.410,71.6863,0.004818
11.441,71.7299,0.004818
11.472,71.7746,0.004818
11.502,71.8197,0.004818
11.532,71.8648,0.004818
11.564,71.9129,0.004498
11.594,71.9575,0.004498
11.626,72.0052,0.004498
11.657,72.0513,0.004498
11.688,72.0987,0.004498
11.719,72.1448,0.004498
11.749,72.1898,0.004498
11.780,72.2360,0.004498
11.811,72.2843,0.004178
11.840,72.3261,0.004178
11.871,72.3724,0.004178
11.902,72.4201,0.004178
11.933,72.4653,0.004178
11.966,72.5166,0.004178
11.994,72.5573,0.004178
12.025,72.6041,0.004178
12.057,72.6514,0.003821
12.088,72.6976,0.003821
12.120,72.7462,0.003821
12.149,72.7906,0.003821
12.180,72.8376,0.003821
12.210,72.8814,0.003821
12.242,72.9285,0.003821
12.273,72.9765,0.003821
12.304,73.0228,0.003312
12.335,73.0688,0.003312
12.366,73.1162,0.003312
12.398,73.1633,0.003312
12.429,73.2092,0.003312
12.460,73.2569,0.003312
12.491,73.3033,0.003312
12.522,73.3496,0.002663
12.552,73.3945,0.002663
12.583,73.4405,0.002663
12.614,73.4874,0.002663
12.645,73.5346,0.002663
12.675,73.5791,0.002663
12.707,73.6279,0.002663
12.738,73.6729,0.002663
12.768,73.7187,0.002663
12.799,73.7650,0.001590
12.831,73.8123,0.001590
12.862,73.8598,0.001590
12.893,73.9066,0.001590
12.924,73.9510,0.001590
12.955,73.9967,0.001590
12.986,74.0405,0.001590
13.017,74.0852,0.001590
13.048,74.1263,-0.000273
13.079,74.1689,-0.000273
13.109,74.2086,-0.000273
13.140,74.2497,-0.000273
13.171,74.2882,-0.000273
13.203,74.3296,-0.000273
13.234,74.3671,-0.000273
13.265,74.4060,-0.000273
13.296,74.4422,-0.003896
13.327,74.4779,-0.003896
13.358,74.5134,-0.003896
13.389,74.5479,-0.003896
13.420,74.5821,-0.003896
13.451,74.6156,-0.003896
13.482,74.6488,-0.003896
13.519,74.6859,-0.003896
13.545,74.7116,-0.010841
13.576,74.7419,-0.010841
13.607,74.7715,-0.010841
13.638,74.8010,-0.010841
13.668,74.8281,-0.010841
13.699,74.8560,-0.010841
13.730,74.8819,-0.010841
13.762,74.9087,-0.010841
13.792,74.9330,-0.023102
13.824,74.9585,-0.023102
13.854,74.9818,-0.023102
13.885,75.0055,-0.023102
13.916,75.0272,-0.023102
13.947,75.0487,-0.023102
13.977,75.0692,-0.023102
14.008,75.0895,-0.023102
14.040,75.1095,-0.040098
14.071,75.1279,-0.040098
14.103,75.1463,-0.040098
14.134,75.1637,-0.040098
14.165,75.1803,-0.040098
14.196,75.1964,-0.040098
14.227,75.2109,-0.040098
14.257,75.2254,-0.040098
14.289,75.2389,-0.040098
14.320,75.2520,-0.057902
14.351,75.2640,-0.057902
14.382,75.2755,-0.057902
14.413,75.2859,-0.057902
14.444,75.2960,-0.057902
14.474,75.3050,-0.057902
14.505,75.3135,-0.057902
14.536,75.3214,-0.072093
14.567,75.3284,-0.072093
14.599,75.3349,-0.072093
14.630,75.3405,-0.072093
14.661,75.3455,-0.072093
14.692,75.3497,-0.072093
14.723,75.3530,-0.072093
14.754,75.3556,-0.072093
14.784,75.3576,-0.079527
14.816,75.3589,-0.079527
14.846,75.3594,-0.079527
14.877,75.3594,-0.079527
14.908,75.3594,-0.079527
14.940,75.3594,-0.079527
14.971,75.3594,-0.079527
15.001,75.3594,-0.079527
15.032,75.3594,-0.079527
15.064,75.3594,-0.078464
15.094,75.3594,-0.078464
15.126,75.3594,-0.078464
15.156,75.3594,-0.078464
15.191,75.3594,-0.078464
15.217,75.3594,-0.078464
15.249,75.3594,-0.078464
15.280,75.3594,-0.078464
15.311,75.3594,-0.073062
15.342,75.3594,-0.073062
15.372,75.3594,-0.073062
15.404,75.3594,-0.073062
15.435,75.3594,-0.073062
15.467,75.3594,-0.073062
15.497,75.3594,-0.073062
15.528,75.3594,-0.073062
15.559,75.3594,-0.068893
15.590,75.3594,-0.068893
15.620,75.3594,-0.068893
15.651,75.3594,-0.068893
15.682,75.3594,-0.068893
15.713,75.3594,-0.068893
15.744,75.3594,-0.068893
15.776,75.3594,-0.066023
15.807,75.3594,-0.066023
15.837,75.3594,-0.066023
15.869,75.3594,-0.066023
15.900,75.3594,-0.066023
15.931,75.3594,-0.066023
15.962,75.3594,-0.066023
15.993,75.3594,-0.066023
16.024,75.3594,-0.066023
16.055,75.3594,-0.066023
16.086,75.3594,-0.063784
16.119,75.3594,-0.063784
16.148,75.3594,-0.063784
16.179,75.3594,-0.063784
16.209,75.3594,-0.063784
16.245,75.3594,-0.063784
16.286,75.3594,-0.063784
16.317,75.3594,-0.063784
16.351,75.3594,-0.061958
16.379,75.3594,-0.061958
16.411,75.3594,-0.061958
16.442,75.3594,-0.061958
16.473,75.3594,-0.061958
16.505,75.3594,-0.061958
16.536,75.3594,-0.060415
16.568,75.3594,-0.060415
16.599,75.3594,-0.060415
16.631,75.3594,-0.060415
16.662,75.3594,-0.060415
16.694,75.3594,-0.060415
16.724,75.3594,-0.060415
16.755,75.3594,-0.060415
16.787,75.3594,-0.060415
16.818,75.3594,-0.059088
16.848,75.3594,-0.059088
16.878,75.3594,-0.059088
16.909,75.3594,-0.059088
16.940,75.3594,-0.059088
16.971,75.3594,-0.059088
17.002,75.3594,-0.059088
17.033,75.3594,-0.059088
17.064,75.3594,-0.057968
17.094,75.3594,-0.057968
17.126,75.3594,-0.057968
17.156,75.3594,-0.057968
17.188,75.3594,-0.057968
17.218,75.3594,-0.057968
17.248,75.3594,-0.057968
17.280,75.3594,-0.056980
17.311,75.3594,-0.056980
17.341,75.3594,-0.056980
17.373,75.3594,-0.056980
17.404,75.3594,-0.056980
17.435,75.3594,-0.056980
17.466,75.3594,-0.056980
17.496,75.3594,-0.056980
17.527,75.3594,-0.056980
17.558,75.3594,-0.056058
17.589,75.3594,-0.056058
17.620,75.3594,-0.056058
17.651,75.3594,-0.056058
17.682,75.3594,-0.056058
17.713,75.3594,-0.056058
17.745,75.3594,-0.056058
17.777,75.3594,-0.055248
17.807,75.3594,-0.055248
17.838,75.3594,-0.055248
17.870,75.3594,-0.055248
17.901,75.3594,-0.055248
17.932,75.3594,-0.055248
17.963,75.3594,-0.055248
17.994,75.3594,-0.055248
18.025,75.3594,-0.055248
18.056,75.3594,-0.054420
18.087,75.3594,-0.054420
18.118,75.3594,-0.054420
18.148,75.3594,-0.054420
18.181,75.3594,-0.054420
18.211,75.3594,-0.054420
18.242,75.3594,-0.054420
18.273,75.3594,-0.054420
18.304,75.3594,-0.054420
18.334,75.3594,-0.053884
18.365,75.3594,-0.053884
18.396,75.3594,-0.053884
18.428,75.3594,-0.053884
18.458,75.3594,-0.053884
18.489,75.3594,-0.053884
18.521,75.3594,-0.053884
18.557,75.3594,-0.053884
18.582,75.3594,-0.053884
18.614,75.3594,-0.053376
18.647,75.3594,-0.053376
18.679,75.3594,-0.053376
18.708,75.3594,-0.053376
18.739,75.3594,-0.053376
18.770,75.3594,-0.053376
18.801,75.3594,-0.053376
18.832,75.3594,-0.052651
18.863,75.3594,-0.052651
18.894,75.3594,-0.052651
18.925,75.3594,-0.052651
18.956,75.3594,-0.052651
18.987,75.3594,-0.052651
19.017,75.3594,-0.052651
19.048,75.3590,-0.052651
19.079,75.3580,-0.052049
19.110,75.3561,-0.052049
19.140,75.3537,-0.052049
19.172,75.3503,-0.052049
19.202,75.3466,-0.052049
19.232,75.3420,-0.052049
19.264,75.3364,-0.052049
19.295,75.3303,-0.052049
19.326,75.3234,-0.050581
19.356,75.3160,-0.050581
19.387,75.3079,-0.050581
19.422,75.2974,-0.050581
19.449,75.2889,-0.050581
19.481,75.2781,-0.050581
19.512,75.2670,-0.050581
19.542,75.2552,-0.041086
19.574,75.2420,-0.041086
19.605,75.2289,-0.041086
19.636,75.2146,-0.041086
19.667,75.1996,-0.041086
19.698,75.1839,-0.041086
19.729,75.1678,-0.041086
19.760,75.1505,-0.041086
19.791,75.1330,-0.023065
19.822,75.1144,-0.023065
19.853,75.0956,-0.023065
19.883,75.0756,-0.023065
19.915,75.0546,-0.023065
19.947,75.0326,-0.023065
19.977,75.0107,-0.023065
20.007,74.9885,-0.023065
20.039,74.9646,-0.004159
20.070,74.9400,-0.004159
20.101,74.9154,-0.004159
20.132,74.8891,-0.004159
20.163,74.8634,-0.004159
20.194,74.8355,-0.004159
20.224,74.8086,-0.004159
20.255,74.7796,-0.004159
20.286,74.7512,0.012337
20.316,74.7209,0.012337
20.347,74.6903,0.012337
20.377,74.6595,0.012337
20.408,74.6279,0.012337
20.440,74.5936,0.012337
20.470,74.5614,0.012337
20.504,74.5218,0.012337
20.532,74.4912,0.012337
20.563,74.4547,0.023470
20.595,74.4179,0.023470
20.625,74.3809,0.023470
20.656,74.3429,0.023470
20.687,74.3043,0.023470
20.718,74.2636,0.023470
20.749,74.2241,0.023470
20.780,74.1809,0.023470
20.811,74.1422,0.030047
20.842,74.1004,0.030047
20.873,74.0569,0.030047
20.904,74.0130,0.030047
20.934,73.9691,0.030047
20.966,73.9229,0.030047
20.997,73.8765,0.030047
21.028,73.8308,0.035872
21.059,73.7832,0.035872
21.090,73.7371,0.035872
21.121,73.6906,0.035872
21.153,73.6431,0.035872
21.183,73.5971,0.035872
21.214,73.5502,0.035872
21.245,73.5046,0.035872
21.276,73.4570,0.040907
21.307,73.4118,0.040907
21.337,73.3659,0.040907
21.368,73.3189,0.040907
21.400,73.2729,0.040907
21.431,73.2258,0.040907
21.461,73.1808,0.040907
21.492,73.1333,0.040907
21.524,73.0864,0.040907
21.555,73.0396,0.040907
21.586,72.9935,0.042958
21.617,72.9466,0.042958
21.647,72.9011,0.042958
21.679,72.8541,0.042958
21.710,72.8077,0.042958
21.740,72.7608,0.042958
21.772,72.7147,0.042958
21.803,72.6678,0.042958
21.835,72.6201,0.028984
21.866,72.5726,0.028984
21.897,72.5268,0.028984
21.929,72.4790,0.028984
21.960,72.4318,0.028984
21.991,72.3852,0.028984
22.022,72.3385,0.028984
22.054,72.2904,0.028984
22.084,72.2468,0.028984
22.115,72.1994,0.011151
22.145,72.1546,0.011151
22.177,72.1062,0.011151
22.208,72.0595,0.011151
22.241,72.0105,0.011151
22.271,71.9655,0.011151
22.303,71.9172,0.011151
22.332,71.8744,0.007020
22.363,71.8284,0.007020
22.394,71.7818,0.007020
22.424,71.7359,0.007020
22.456,71.6905,0.007020
22.486,71.6466,0.007020
22.517,71.6021,0.007020
22.545,71.5646,0.007020
22.580,71.5165,0.006606
22.610,71.4768,0.006606
22.641,71.4346,0.006606
22.672,71.3955,0.006606
22.704,71.3543,0.006606
22.738,71.3117,0.006606
22.766,71.2781,0.006606
22.796,71.2415,0.006606
22.827,71.2062,0.006399
22.863,71.1637,0.006399
22.889,71.1348,0.006399
22.920,71.0995,0.006399
22.951,71.0669,0.006399
22.983,71.0328,0.006399
23.017,70.9983,0.006399
23.044,70.9709,0.006399
23.075,70.9405,0.006220
23.106,70.9103,0.006220
23.137,70.8816,0.006220
23.168,70.8522,0.006220
23.199,70.8245,0.006220
23.230,70.7969,0.006220
23.263,70.7700,0.006220
23.293,70.7451,0.006117
23.323,70.7206,0.006117
23.354,70.6965,0.006117
23.385,70.6738,0.006117
23.416,70.6504,0.006117
23.447,70.6290,0.006117
23.478,70.6078,0.006117
23.510,70.5868,0.006117
23.541,70.5669,0.006041
23.572,70.5476,0.006041
23.604,70.5289,0.006041
23.634,70.5122,0.006041
23.665,70.4948,0.006041
23.700,70.4771,0.006041
23.727,70.4637,0.006041
23.758,70.4489,0.006041
23.788,70.4354,0.006041
23.819,70.4227,0.006013
23.850,70.4105,0.006013
23.880,70.3986,0.006013
23.911,70.3875,0.006013
23.943,70.3770,0.006013
23.974,70.3674,0.006013
24.007,70.3579,0.006013
24.033,70.3513,0.006013
24.067,70.3432,0.005844
24.099,70.3364,0.005844
24.128,70.3307,0.005844
24.160,70.3254,0.005844
24.189,70.3212,0.005844
24.220,70.3174,0.005844
24.253,70.3142,0.005844
24.282,70.3120,0.005844
24.313,70.3104,0.005816
24.345,70.3095,0.005816
24.376,70.3094,0.005816
24.406,70.3094,0.005816
24.437,70.3094,0.005816
24.468,70.3094,0.005816
24.500,70.3098,0.005816
24.531,70.3109,0.005816
24.561,70.3126,0.005910
24.591,70.3151,0.005910
24.623,70.3184,0.005910
24.654,70.3225,0.005910
24.686,70.3272,0.005910
24.718,70.3329,0.005910
24.749,70.3391,0.005910
24.779,70.3462,0.005816
24.810,70.3535,0.005816
24.841,70.3622,0.005816
24.872,70.3709,0.005816
24.903,70.3811,0.005816
24.935,70.3919,0.005816
24.966,70.4033,0.005816
24.998,70.4153,0.005816
25.029,70.4283,0.005816
25.060,70.4417,0.005637
25.091,70.4561,0.005637
25.121,70.4706,0.005637
25.153,70.4865,0.005637
25.183,70.5032,0.005637
25.214,70.5201,0.005637
25.245,70.5380,0.005637
25.276,70.5564,0.005524
25.307,70.5759,0.005524
25.338,70.5959,0.005524
25.369,70.6162,0.005524
25.401,70.6384,0.005524
25.432,70.6605,0.005524
25.463,70.6842,0.005524
25.494,70.7072,0.005524
25.526,70.7330,0.005524
25.557,70.7577,0.005496
25.588,70.7841,0.005496
25.618,70.8092,0.005496
