Elapsed Time (s),Position (mm),Force (N)
-0.006,77.3003,-0.036011
0.024,77.3003,-0.036011
0.056,77.3003,-0.036011
0.088,77.3003,-0.036011
0.119,77.3003,-0.036011
0.150,77.3003,-0.033339
0.181,77.3003,-0.033339
0.213,77.3003,-0.033339
0.242,77.3003,-0.033339
0.273,77.3003,-0.033339
0.305,77.3003,-0.033339
0.336,77.3003,-0.033339
0.367,77.3003,-0.033339
0.398,77.3003,-0.033339
0.428,77.3003,-0.031381
0.460,77.3003,-0.031381
0.491,77.3003,-0.031381
0.523,77.3003,-0.031381
0.554,77.3003,-0.031381
0.585,77.3003,-0.031381
0.616,77.3003,-0.031381
0.647,77.3003,-0.031381
0.678,77.3003,-0.029942
0.709,77.3003,-0.029942
0.741,77.3003,-0.029942
0.772,77.3003,-0.029942
0.803,77.3003,-0.029942
0.836,77.3003,-0.029942
0.866,77.3003,-0.029942
0.897,77.3003,-0.028765
0.929,77.3003,-0.028765
0.959,77.3003,-0.028765
0.990,77.3003,-0.028765
1.021,77.3003,-0.028765
1.051,77.3003,-0.028765
1.083,77.3003,-0.028765
1.113,77.3003,-0.028765
1.145,77.3003,-0.028765
1.175,77.3003,-0.027712
1.207,77.3003,-0.027712
1.237,77.3003,-0.027712
1.268,77.3003,-0.027712
1.299,77.3003,-0.027712
1.329,77.3003,-0.027712
1.362,77.3003,-0.027712
1.391,77.3003,-0.027712
1.421,77.3003,-0.027712
1.452,77.3003,-0.026836
1.484,77.3003,-0.026836
1.515,77.3003,-0.026836
1.545,77.3003,-0.026836
1.576,77.3003,-0.026836
1.608,77.3003,-0.026836
1.638,77.3003,-0.026836
1.670,77.3003,-0.026112
1.701,77.3003,-0.026112
1.732,77.3003,-0.026112
1.764,77.3003,-0.026112
1.795,77.3003,-0.026112
1.826,77.3003,-0.026112
1.857,77.3003,-0.026112
1.888,77.3003,-0.025472
1.919,77.3003,-0.025472
1.950,77.3003,-0.025472
1.981,77.3003,-0.025472
2.013,77.3003,-0.025472
2.043,77.3003,-0.025472
2.074,77.3003,-0.025472
2.105,77.3003,-0.025472
2.135,77.3003,-0.024889
2.166,77.3003,-0.024889
2.197,77.3003,-0.024889
2.228,77.3003,-0.024889
2.259,77.3003,-0.024889
2.290,77.3003,-0.024889
2.322,77.3003,-0.024889
2.352,77.3003,-0.024889
2.383,77.3003,-0.024889
2.415,77.3003,-0.024889
2.445,77.3003,-0.024390
2.475,77.3003,-0.024390
2.505,77.3003,-0.024390
2.537,77.3003,-0.024390
2.568,77.3003,-0.024390
2.599,77.3003,-0.024390
2.630,77.3003,-0.023901
2.661,77.3003,-0.023901
2.693,77.3003,-0.023901
2.723,77.3003,-0.023901
2.753,77.3003,-0.023901
2.784,77.3003,-0.023901
2.818,77.3003,-0.023901
2.847,77.3003,-0.023901
2.879,77.3003,-0.023901
2.910,77.3003,-0.023449
2.941,77.3003,-0.023449
2.971,77.3003,-0.023449
3.005,77.3003,-0.023449
3.034,77.3003,-0.023449
3.064,77.3003,-0.023449
3.096,77.3003,-0.023449
3.127,77.3003,-0.023449
3.158,77.3003,-0.023063
3.189,77.3003,-0.023063
3.220,77.3003,-0.023063
3.251,77.3003,-0.023063
3.285,77.3003,-0.023063
3.313,77.3003,-0.023063
3.345,77.3003,-0.023063
3.376,77.3003,-0.023063
3.407,77.3003,-0.023063
3.438,77.3003,-0.022677
3.468,77.3003,-0.022677
3.502,77.3003,-0.022677
3.530,77.3003,-0.022677
3.560,77.3003,-0.022677
3.595,77.3003,-0.022677
3.622,77.3003,-0.022677
3.653,77.3003,-0.022367
3.684,77.3003,-0.022367
3.715,77.3003,-0.022367
3.747,77.3003,-0.022367
3.778,77.3003,-0.022367
3.809,77.3003,-0.022367
3.840,77.3003,-0.022367
3.871,77.3003,-0.022367
3.902,77.3003,-0.022047
3.932,77.3003,-0.022047
3.963,77.3003,-0.022047
3.994,77.3003,-0.022047
4.025,77.3003,-0.022047
4.056,77.3003,-0.022047
4.087,77.3003,-0.022047
4.118,77.3003,-0.022047
4.149,77.3003,-0.021727
4.181,77.3003,-0.021727
4.212,77.3002,-0.021727
4.244,77.2995,-0.021727
4.275,77.2980,-0.021727
4.306,77.2957,-0.021727
4.337,77.2928,-0.021727
4.368,77.2890,-0.021727
4.400,77.2846,-0.021247
4.430,77.2795,-0.021247
4.462,77.2735,-0.021247
4.496,77.2660,-0.021247
4.524,77.2594,-0.021247
4.556,77.2513,-0.021247
4.587,77.2423,-0.021247
4.618,77.2327,-0.021247
4.649,77.2226,-0.016392
4.679,77.2118,-0.016392
4.710,77.2004,-0.016392
4.741,77.1878,-0.016392
4.772,77.1748,-0.016392
4.802,77.1609,-0.016392
4.833,77.1465,-0.016392
4.864,77.1312,-0.016392
4.896,77.1148,-0.003952
4.926,77.0985,-0.003952
4.957,77.0807,-0.003952
4.988,77.0625,-0.003952
5.019,77.0437,-0.003952
5.050,77.0239,-0.003952
5.081,77.0034,-0.003952
5.113,76.9818,-0.003952
5.147,76.9577,0.013682
5.175,76.9368,0.013682
5.207,76.9138,0.013682
5.237,76.8894,0.013682
5.268,76.8651,0.013682
5.298,76.8398,0.013682
5.330,76.8138,0.013682
5.361,76.7860,0.013682
5.392,76.7591,0.034242
5.424,76.7292,0.034242
5.454,76.7013,0.034242
5.486,76.6700,0.034242
5.517,76.6397,0.034242
5.549,76.6056,0.034242
5.578,76.5777,0.034242
5.609,76.5437,0.034242
5.643,76.5070,0.058255
5.672,76.4760,0.058255
5.704,76.4385,0.058255
5.734,76.4050,0.058255
5.765,76.3694,0.058255
5.795,76.3317,0.058255
5.826,76.2946,0.058255
5.857,76.2564,0.058255
5.887,76.2180,0.088404
5.921,76.1735,0.088404
5.949,76.1369,0.088404
5.980,76.0948,0.088404
6.012,76.0522,0.088404
6.042,76.0097,0.088404
6.074,75.9652,0.088404
6.105,75.9205,0.088404
6.138,75.8728,0.115278
6.168,75.8279,0.115278
6.198,75.7829,0.115278
6.230,75.7345,0.115278
6.260,75.6877,0.115278
6.291,75.6390,0.115278
6.323,75.5874,0.115278
6.353,75.5390,0.115278
6.385,75.4870,0.115278
6.415,75.4369,0.081516
6.446,75.3834,0.081516
6.477,75.3310,0.081516
6.508,75.2755,0.081516
6.539,75.2232,0.081516
6.570,75.1668,0.081516
6.600,75.1136,0.081516
6.631,75.0569,0.081516
6.661,75.0008,0.024776
6.692,74.9420,0.024776
6.722,74.8827,0.024776
6.753,74.8245,0.024776
6.784,74.7627,0.024776
6.815,74.7049,0.024776
6.846,74.6454,0.024776
6.878,74.5853,0.024776
6.908,74.5292,0.011254
6.940,74.4694,0.011254
6.971,74.4142,0.011254
7.002,74.3584,0.011254
7.033,74.3032,0.011254
7.064,74.2480,0.011254
7.094,74.1968,0.011254
7.125,74.1426,0.011254
7.156,74.0916,0.010200
7.188,74.0389,0.010200
7.218,73.9892,0.010200
7.250,73.9376,0.010200
7.281,73.8885,0.010200
7.311,73.8417,0.010200
7.343,73.7930,0.010200
7.374,73.7461,0.010200
7.405,73.6991,0.010200
7.436,73.6536,0.009090
7.467,73.6094,0.009090
7.498,73.5646,0.009090
7.529,73.5215,0.009090
7.561,73.4769,0.009090
7.591,73.4364,0.009090
7.623,73.3945,0.009090
7.653,73.3554,0.008337
7.684,73.3156,0.008337
7.715,73.2761,0.008337
7.746,73.2378,0.008337
7.777,73.2009,0.008337
7.809,73.1633,0.008337
7.838,73.1291,0.008337
7.869,73.0927,0.008337
7.900,73.0590,0.007763
7.930,73.0264,0.007763
7.961,72.9931,0.007763
7.992,72.9605,0.007763
8.023,72.9286,0.007763
8.054,72.8970,0.007763
8.085,72.8674,0.007763
8.117,72.8369,0.007763
8.147,72.8091,0.007330
8.179,72.7797,0.007330
8.208,72.7540,0.007330
8.238,72.7278,0.007330
8.270,72.7012,0.007330
8.301,72.6755,0.007330
8.332,72.6513,0.007330
8.363,72.6273,0.007330
8.395,72.6042,0.006926
8.426,72.5815,0.006926
8.457,72.5604,0.006926
8.487,72.5396,0.006926
8.519,72.5195,0.006926
8.549,72.4999,0.006926
8.580,72.4814,0.006926
8.611,72.4634,0.006926
8.642,72.4461,0.006540
8.674,72.4293,0.006540
8.704,72.4142,0.006540
8.737,72.3977,0.006540
8.767,72.3844,0.006540
8.798,72.3703,0.006540
8.828,72.3580,0.006540
8.859,72.3460,0.006540
8.891,72.3343,0.006257
8.921,72.3235,0.006257
8.951,72.3140,0.006257
8.983,72.3047,0.006257
9.015,72.2960,0.006257
9.046,72.2882,0.006257
9.076,72.2811,0.006257
9.107,72.2750,0.006257
9.138,72.2692,0.006257
9.169,72.2645,0.006013
9.202,72.2600,0.006013
9.229,72.2570,0.006013
9.261,72.2542,0.006013
9.291,72.2522,0.006013
9.323,72.2508,0.006013
9.354,72.2503,0.006013
9.386,72.2503,0.006013
9.416,72.2503,0.005787
9.447,72.2503,0.005787
9.480,72.2503,0.005787
9.508,72.2503,0.005787
9.539,72.2503,0.005787
9.570,72.2503,0.005787
9.601,72.2503,0.005787
9.632,72.2503,0.005787
9.663,72.2503,0.005712
9.694,72.2503,0.005712
9.725,72.2503,0.005712
9.757,72.2503,0.005712
9.787,72.2503,0.005712
9.821,72.2503,0.005712
9.849,72.2503,0.005712
9.880,72.2503,0.005712
9.910,72.2503,0.005702
9.940,72.2503,0.005702
9.971,72.2503,0.005702
10.003,72.2507,0.005702
10.033,72.2518,0.005702
10.064,72.2537,0.005702
10.095,72.2563,0.005702
10.128,72.2598,0.005702
10.157,72.2636,0.005702
10.188,72.2683,0.005533
10.218,72.2738,0.005533
10.249,72.2801,0.005533
10.281,72.2871,0.005533
10.312,72.2950,0.005533
10.342,72.3031,0.005533
10.373,72.3121,0.005533
10.404,72.3218,0.005307
10.435,72.3323,0.005307
10.466,72.3439,0.005307
10.497,72.3554,0.005307
10.528,72.3685,0.005307
10.558,72.3814,0.005307
10.589,72.3960,0.005307
10.621,72.4110,0.005307
10.651,72.4265,0.005138
10.683,72.4432,0.005138
10.714,72.4603,0.005138
10.745,72.4778,0.005138
10.776,72.4962,0.005138
10.806,72.5153,0.005138
10.836,72.5349,0.005138
10.867,72.5551,0.005138
10.898,72.5769,0.004978
10.929,72.5996,0.004978
10.960,72.6216,0.004978
10.991,72.6457,0.004978
11.022,72.6697,0.004978
11.053,72.6947,0.004978
11.084,72.7202,0.004978
11.115,72.7473,0.004978
11.147,72.7756,0.004893
11.183,72.8083,0.004893
11.209,72.8320,0.004893
11.240,72.8608,0.004893
11.271,72.8917,0.004893
11.301,72.9214,0.004893
11.334,72.9552,0.004893
11.363,72.9863,0.004893
11.394,73.0177,0.004808
11.425,73.0515,0.004808
11.456,73.0860,0.004808
11.487,73.1221,0.004808
11.518,73.1581,0.004808
11.550,73.1958,0.004808
11.580,73.2315,0.004808
11.611,73.2707,0.004808
11.642,73.3089,0.004808
11.673,73.3485,0.004667
11.704,73.3889,0.004667
11.735,73.4294,0.004667
11.766,73.4727,0.004667
11.802,73.5220,0.004667
11.828,73.5588,0.004667
11.859,73.6015,0.004667
11.889,73.6460,0.004498
11.920,73.6910,0.004498
11.951,73.7369,0.004498
11.984,73.7864,0.004498
12.013,73.8305,0.004498
12.044,73.8783,0.004498
12.075,73.9275,0.004498
12.106,73.9784,0.004498
12.142,74.0375,0.004310
12.168,74.0802,0.004310
12.199,74.1312,0.004310
12.230,74.1840,0.004310
12.261,74.2373,0.004310
12.293,74.2936,0.004310
12.323,74.3462,0.004310
12.354,74.4010,0.004310
12.384,74.4577,0.004310
12.416,74.5155,0.004131
12.446,74.5713,0.004131
12.477,74.6295,0.004131
12.508,74.6911,0.004131
12.539,74.7488,0.004131
12.574,74.8181,0.004131
12.601,74.8680,0.004131
12.632,74.9274,0.004131
12.663,74.9844,0.003877
12.697,75.0476,0.003877
12.725,75.0989,0.003877
12.756,75.1536,0.003877
12.787,75.2093,0.003877
12.818,75.2624,0.003877
12.849,75.3171,0.003877
12.880,75.3687,0.003877
12.911,75.4200,0.003877
12.941,75.4696,0.003623
12.971,75.5205,0.003623
13.003,75.5702,0.003623
13.035,75.6216,0.003623
13.065,75.6678,0.003623
13.096,75.7166,0.003623
13.130,75.7670,0.003623
13.157,75.8075,0.003096
13.188,75.8539,0.003096
13.218,75.8968,0.003096
13.251,75.9445,0.003096
13.279,75.9818,0.003096
13.310,76.0245,0.003096
13.341,76.0659,0.003096
13.372,76.1070,0.003096
13.403,76.1478,0.003096
13.434,76.1875,0.001948
13.464,76.2260,0.001948
13.497,76.2668,0.001948
13.526,76.3015,0.001948
13.557,76.3383,0.001948
13.588,76.3740,0.001948
13.621,76.4123,0.001948
13.649,76.4426,0.001948
13.680,76.4772,-0.000056
13.711,76.5098,-0.000056
13.742,76.5433,-0.000056
13.772,76.5736,-0.000056
13.803,76.6052,-0.000056
13.834,76.6350,-0.000056
13.866,76.6661,-0.000056
13.895,76.6921,-0.000056
13.929,76.7244,-0.003416
13.957,76.7478,-0.003416
13.988,76.7744,-0.003416
14.019,76.8009,-0.003416
14.051,76.8257,-0.003416
14.082,76.8506,-0.003416
14.114,76.8747,-0.003416
14.145,76.8979,-0.003416
14.176,76.9208,-0.009240
14.211,76.9450,-0.009240
14.238,76.9632,-0.009240
14.269,76.9832,-0.009240
14.301,77.0032,-0.009240
14.335,77.0234,-0.009240
14.363,77.0394,-0.009240
14.394,77.0566,-0.018292
14.425,77.0731,-0.018292
14.457,77.0890,-0.018292
14.487,77.1039,-0.018292
14.513,77.1157,-0.018292
14.550,77.1315,-0.018292
14.580,77.1441,-0.018292
14.611,77.1565,-0.018292
14.644,77.1681,-0.028681
14.675,77.1787,-0.028681
14.706,77.1888,-0.028681
14.736,77.1975,-0.028681
14.768,77.2062,-0.028681
14.799,77.2139,-0.028681
14.830,77.2208,-0.028681
14.861,77.2269,-0.028681
14.892,77.2325,-0.036933
14.924,77.2373,-0.036933
14.954,77.2412,-0.036933
14.985,77.2445,-0.036933
15.016,77.2470,-0.036933
15.047,77.2489,-0.036933
15.078,77.2500,-0.036933
15.109,77.2504,-0.036933
15.140,77.2504,-0.040226
15.171,77.2504,-0.040226
15.202,77.2504,-0.040226
15.233,77.2504,-0.040226
15.264,77.2504,-0.040226
15.295,77.2504,-0.040226
15.326,77.2504,-0.040226
15.359,77.2504,-0.040226
15.388,77.2504,-0.038439
15.419,77.2504,-0.038439
15.450,77.2504,-0.038439
15.480,77.2504,-0.038439
15.512,77.2504,-0.038439
15.544,77.2504,-0.038439
15.573,77.2504,-0.038439
15.605,77.2504,-0.038439
15.636,77.2504,-0.038439
15.667,77.2504,-0.035117
15.699,77.2504,-0.035117
15.732,77.2504,-0.035117
15.762,77.2504,-0.035117
15.792,77.2504,-0.035117
15.823,77.2504,-0.035117
15.853,77.2504,-0.035117
15.885,77.2504,-0.032755
15.916,77.2504,-0.032755
15.946,77.2504,-0.032755
15.977,77.2504,-0.032755
16.009,77.2504,-0.032755
16.040,77.2504,-0.032755
16.070,77.2504,-0.032755
16.100,77.2504,-0.032755
16.132,77.2504,-0.032755
16.163,77.2504,-0.031071
16.195,77.2504,-0.031071
16.227,77.2504,-0.031071
16.256,77.2504,-0.031071
16.287,77.2504,-0.031071
16.318,77.2504,-0.031071
16.348,77.2504,-0.031071
16.382,77.2504,-0.031071
16.410,77.2504,-0.031071
16.441,77.2504,-0.029725
16.473,77.2504,-0.029725
16.504,77.2504,-0.029725
16.535,77.2504,-0.029725
16.566,77.2504,-0.029725
16.597,77.2504,-0.029725
16.629,77.2504,-0.029725
16.660,77.2504,-0.029725
16.691,77.2504,-0.028624
16.722,77.2504,-0.028624
16.757,77.2504,-0.028624
16.784,77.2504,-0.028624
16.815,77.2504,-0.028624
16.846,77.2504,-0.028624
16.878,77.2504,-0.028624
16.909,77.2504,-0.028624
16.940,77.2504,-0.027683
16.972,77.2504,-0.027683
17.003,77.2504,-0.027683
17.035,77.2504,-0.027683
17.065,77.2504,-0.027683
17.097,77.2504,-0.027683
17.128,77.2504,-0.027683
17.161,77.2504,-0.026818
17.190,77.2504,-0.026818
17.221,77.2504,-0.026818
17.252,77.2504,-0.026818
17.282,77.2504,-0.026818
17.313,77.2504,-0.026818
17.344,77.2504,-0.026818
17.375,77.2504,-0.026818
17.406,77.2504,-0.026093
17.437,77.2504,-0.026093
17.467,77.2504,-0.026093
17.498,77.2504,-0.026093
17.530,77.2504,-0.026093
17.560,77.2504,-0.026093
17.591,77.2504,-0.026093
17.622,77.2504,-0.026093
17.654,77.2504,-0.025434
17.685,77.2504,-0.025434
17.715,77.2504,-0.025434
17.746,77.2504,-0.025434
17.776,77.2504,-0.025434
17.808,77.2504,-0.025434
17.838,77.2504,-0.025434
17.868,77.2504,-0.025434
17.899,77.2504,-0.024842
17.931,77.2504,-0.024842
17.961,77.2504,-0.024842
17.992,77.2504,-0.024842
18.023,77.2504,-0.024842
18.053,77.2504,-0.024842
18.085,77.2504,-0.024842
18.117,77.2504,-0.024842
18.148,77.2504,-0.024842
18.179,77.2504,-0.024380
18.210,77.2504,-0.024380
18.241,77.2504,-0.024380
18.275,77.2504,-0.024380
18.304,77.2504,-0.024380
18.335,77.2504,-0.024380
18.366,77.2504,-0.024380
18.396,77.2504,-0.024380
18.427,77.2504,-0.023919
18.458,77.2504,-0.023919
18.488,77.2504,-0.023919
18.520,77.2504,-0.023919
18.552,77.2504,-0.023919
18.582,77.2504,-0.023919
18.614,77.2504,-0.023919
18.645,77.2504,-0.023487
18.676,77.2504,-0.023487
18.706,77.2504,-0.023487
18.737,77.2504,-0.023487
18.768,77.2504,-0.023487
18.802,77.2504,-0.023487
18.831,77.2504,-0.023487
18.862,77.2504,-0.023487
18.893,77.2504,-0.023487
18.923,77.2504,-0.023129
18.954,77.2504,-0.023129
18.986,77.2504,-0.023129
19.015,77.2504,-0.023129
19.047,77.2504,-0.023129
19.078,77.2504,-0.023129
19.109,77.2504,-0.023129
19.139,77.2504,-0.022781
19.171,77.2504,-0.022781
19.202,77.2504,-0.022781
19.234,77.2504,-0.022781
19.266,77.2504,-0.022781
19.295,77.2504,-0.022781
19.327,77.2504,-0.022781
19.358,77.2504,-0.022781
19.389,77.2504,-0.022423
19.420,77.2504,-0.022423
19.450,77.2499,-0.022423
19.481,77.2486,-0.022423
19.512,77.2466,-0.022423
19.544,77.2439,-0.022423
19.574,77.2406,-0.022423
19.606,77.2362,-0.022423
19.636,77.2315,-0.021887
19.670,77.2253,-0.021887
19.701,77.2190,-0.021887
19.729,77.2127,-0.021887
19.760,77.2047,-0.021887
19.791,77.1963,-0.021887
19.822,77.1871,-0.021887
19.853,77.1768,-0.021887
19.885,77.1659,-0.016316
19.916,77.1545,-0.016316
19.947,77.1422,-0.016316
19.978,77.1294,-0.016316
20.010,77.1157,-0.016316
20.040,77.1014,-0.016316
20.071,77.0864,-0.016316
20.103,77.0704,-0.016316
20.136,77.0524,-0.016316
20.165,77.0362,-0.016316
20.195,77.0187,-0.002813
20.227,76.9997,-0.002813
20.257,76.9802,-0.002813
20.288,76.9610,-0.002813
20.318,76.9398,-0.002813
20.350,76.9181,-0.002813
20.381,76.8956,-0.002813
20.412,76.8727,0.015319
20.443,76.8483,0.015319
20.475,76.8232,0.015319
20.505,76.7988,0.015319
20.536,76.7731,0.015319
20.568,76.7457,0.015319
20.599,76.7178,0.015319
20.630,76.6900,0.015319
20.661,76.6612,0.036058
20.692,76.6316,0.036058
20.723,76.6012,0.036058
20.755,76.5691,0.036058
20.786,76.5370,0.036058
20.817,76.5036,0.036058
20.848,76.4711,0.036058
20.879,76.4374,0.036058
20.909,76.4034,0.060166
20.940,76.3684,0.060166
20.972,76.3303,0.060166
21.003,76.2943,0.060166
21.033,76.2561,0.060166
21.064,76.2181,0.060166
21.096,76.1759,0.060166
21.127,76.1379,0.060166
21.158,76.0971,0.089176
21.189,76.0568,0.089176
21.221,76.0126,0.089176
21.253,75.9681,0.089176
21.282,75.9271,0.089176
21.313,75.8835,0.089176
21.344,75.8382,0.089176
21.374,75.7948,0.089176
21.406,75.7472,0.106706
21.437,75.6999,0.106706
21.468,75.6523,0.106706
21.499,75.6032,0.106706
21.529,75.5556,0.106706
21.560,75.5051,0.106706
21.591,75.4546,0.106706
21.623,75.4022,0.106706
21.654,75.3502,0.061784
21.684,75.2977,0.061784
21.715,75.2443,0.061784
21.747,75.1888,0.061784
21.777,75.1345,0.061784
21.808,75.0796,0.061784
21.840,75.0207,0.061784
21.871,74.9642,0.061784
21.902,74.9058,0.061784
21.932,74.8476,0.013305
21.963,74.7887,0.013305
21.994,74.7303,0.013305
22.026,74.6669,0.013305
22.056,74.6085,0.013305
22.086,74.5516,0.013305
22.118,74.4915,0.013305
22.148,74.4374,0.013305
22.179,74.3796,0.013305
22.210,74.3250,0.011028
22.240,74.2699,0.011028
22.271,74.2160,0.011028
22.302,74.1633,0.011028
22.333,74.1085,0.011028
22.364,74.0571,0.011028
22.397,74.0008,0.011028
22.426,73.9551,0.009974
22.456,73.9049,0.009974
22.487,73.8567,0.009974
22.519,73.8072,0.009974
22.549,73.7590,0.009974
22.579,73.7140,0.009974
22.613,73.6624,0.009974
22.641,73.6220,0.009974
22.672,73.5765,0.008939
22.702,73.5331,0.008939
22.734,73.4884,0.008939
22.766,73.4449,0.008939
22.797,73.4019,0.008939
22.827,73.3623,0.008939
22.859,73.3192,0.008939
22.889,73.2809,0.008177
22.920,73.2406,0.008177
22.951,73.2031,0.008177
22.982,73.1650,0.008177
23.013,73.1281,0.008177
23.044,73.0917,0.008177
23.074,73.0564,0.008177
23.105,73.0226,0.008177
23.136,72.9888,0.007650
23.166,72.9565,0.007650
23.196,72.9243,0.007650
23.227,72.8918,0.007650
23.258,72.8609,0.007650
23.288,72.8299,0.007650
23.320,72.8008,0.007650
23.351,72.7708,0.007650
23.382,72.7426,0.007255
23.413,72.7147,0.007255
23.444,72.6880,0.007255
23.474,72.6621,0.007255
23.506,72.6361,0.007255
23.537,72.6104,0.007255
23.568,72.5874,0.007255
23.598,72.5638,0.007255
23.629,72.5421,0.006841
23.660,72.5196,0.006841
23.692,72.4979,0.006841
23.722,72.4781,0.006841
23.753,72.4578,0.006841
23.784,72.4396,0.006841
23.815,72.4209,0.006841
23.846,72.4033,0.006841
23.878,72.3865,0.006841
23.909,72.3702,0.006474
23.940,72.3550,0.006474
23.971,72.3400,0.006474
24.002,72.3266,0.006474
24.033,72.3132,0.006474
24.064,72.3006,0.006474
24.095,72.2889,0.006474
24.126,72.2783,0.006229
24.157,72.2680,0.006229
24.189,72.2578,0.006229
24.220,72.2491,0.006229
24.250,72.2412,0.006229
24.282,72.2339,0.006229
24.314,72.2270,0.006229
24.344,72.2213,0.006229
24.375,72.2161,0.006229
24.406,72.2117,0.006022
24.437,72.2078,0.006022
24.468,72.2051,0.006022
24.498,72.2028,0.006022
24.530,72.2012,0.006022
24.561,72.2005,0.006022
24.592,72.2004,0.006022
24.624,72.2004,0.006022
24.655,72.2004,0.005862
24.686,72.2004,0.005862
24.716,72.2004,0.005862
24.747,72.2005,0.005862
24.778,72.2011,0.005862
24.811,72.2027,0.005862
24.840,72.2047,0.005862
24.870,72.2076,0.005862
24.902,72.2113,0.005862
24.932,72.2154,0.005768
24.963,72.2206,0.005768
24.994,72.2263,0.005768
25.026,72.2331,0.005768
25.056,72.2401,0.005768
25.087,72.2481,0.005768
25.118,72.2568,0.005768
25.151,72.2666,0.005768
25.181,72.2765,0.005599
25.214,72.2881,0.005599
25.244,72.2996,0.005599
25.274,72.3115,0.005599
25.306,72.3251,0.005599
25.335,72.3379,0.005599
25.366,72.3525,0.005599
25.396,72.3669,0.005599
25.427,72.3833,0.005392
25.459,72.4002,0.005392
25.489,72.4173,0.005392
25.520,72.4351,0.005392
25.553,72.4550,0.005392
25.582,72.4738,0.005392
25.614,72.4948,0.005392
25.645,72.5159,0.005232
