Elapsed Time (s),Position (mm),Force (N)
-0.022,56.2001,-0.030211
0.000,56.2001,-0.030211
0.024,56.2001,-0.030211
0.056,56.2001,-0.024169
0.086,56.2001,-0.024169
0.117,56.2001,-0.026586
0.147,56.2001,-0.026586
0.179,56.2001,-0.027794
0.210,56.2001,-0.026586
0.241,56.2001,-0.030211
0.272,56.2001,-0.031420
0.303,56.2001,-0.027794
0.333,56.2001,-0.030211
0.365,56.2001,-0.025377
0.396,56.2001,-0.024169
0.427,56.2001,-0.022961
0.458,56.2001,-0.025377
0.479,56.2001,-0.026586
0.504,56.2001,-0.025377
0.535,56.2001,-0.020544
0.567,56.2001,-0.025377
0.597,56.2001,-0.026586
0.628,56.2001,-0.021752
0.659,56.2001,-0.027794
0.684,56.2001,-0.027794
0.705,56.2001,-0.026586
0.736,56.2001,-0.026586
0.769,56.2001,-0.022961
0.797,56.2001,-0.024169
0.828,56.2001,-0.022961
0.859,56.2001,-0.022961
0.890,56.2001,-0.024169
0.911,56.2001,-0.026586
0.936,56.2001,-0.026586
0.967,56.2001,-0.021752
0.998,56.2001,-0.022961
1.029,56.2001,-0.019335
1.060,56.2001,-0.022961
1.091,56.2001,-0.020544
1.123,56.2001,-0.019335
1.154,56.2001,-0.020544
1.186,56.2001,-0.025377
1.218,56.2001,-0.020544
1.248,56.2001,-0.022961
1.279,56.2001,-0.024169
1.309,56.2001,-0.018127
1.341,56.2001,-0.018127
1.371,56.2001,-0.020544
1.403,56.2001,-0.020544
1.434,56.2001,-0.020544
1.465,56.2001,-0.019335
1.486,56.2001,-0.020544
1.509,56.2001,-0.020544
1.545,56.2001,-0.025377
1.573,56.2001,-0.025377
1.606,56.2001,-0.020544
1.638,56.2001,-0.020544
1.667,56.2001,-0.018127
1.698,56.2001,-0.021752
1.730,56.2001,-0.021752
1.761,56.2001,-0.022961
1.792,56.2001,-0.022961
1.824,56.2001,-0.025377
1.844,56.2001,-0.025377
1.870,56.2001,-0.024169
1.901,56.2001,-0.016918
1.932,56.2001,-0.018127
1.963,56.2001,-0.016918
1.995,56.2001,-0.016918
2.028,56.2001,-0.022961
2.057,56.2001,-0.022961
2.089,56.2001,-0.018127
2.119,56.2001,-0.015710
2.150,56.2001,-0.019335
2.182,56.2001,-0.019335
2.212,56.2001,-0.021752
2.242,56.2001,-0.020544
2.274,56.2001,-0.014501
2.305,56.2001,-0.024169
2.335,56.2001,-0.025377
2.366,56.2001,-0.019335
2.396,56.2001,-0.016918
2.427,56.2001,-0.020544
2.458,56.2001,-0.019335
2.489,56.2001,-0.015710
2.520,56.2001,-0.018127
2.552,56.2001,-0.020544
2.574,56.2001,-0.020544
2.598,56.2001,-0.019335
2.630,56.2001,-0.018127
2.661,56.2001,-0.016918
2.693,56.2001,-0.024169
2.723,56.2001,-0.021752
2.754,56.2001,-0.022961
2.786,56.2001,-0.018127
2.817,56.2001,-0.014501
2.847,56.2001,-0.016918
2.878,56.2001,-0.019335
2.908,56.2001,-0.021752
2.939,56.2001,-0.019335
2.969,56.2001,-0.016918
2.989,56.2001,-0.019335
3.016,56.2001,-0.019335
3.046,56.2001,-0.019335
3.077,56.2001,-0.016918
3.108,56.2001,-0.024169
3.130,56.2001,-0.019335
3.156,56.2001,-0.015710
3.186,56.2001,-0.014501
3.218,56.2001,-0.016918
3.249,56.2001,-0.019335
3.280,56.2001,-0.020544
3.310,56.2001,-0.015710
3.341,56.2001,-0.014501
3.372,56.2001,-0.015710
3.403,56.2001,-0.014501
3.436,56.2001,-0.014501
3.465,56.2001,-0.019335
3.498,56.2001,-0.016918
3.528,56.2001,-0.016918
3.559,56.2001,-0.019335
3.591,56.2001,-0.015710
3.622,56.2001,-0.013293
3.643,56.2001,-0.013293
3.668,56.2001,-0.021752
3.690,56.2001,-0.021752
3.715,56.2001,-0.021752
3.746,56.2001,-0.020544
3.777,56.2001,-0.014501
3.808,56.2001,-0.015710
3.839,56.2001,-0.019335
3.870,56.2001,-0.019335
3.902,56.2001,-0.020544
3.935,56.2001,-0.015710
3.965,56.2001,-0.016918
3.996,56.2001,-0.018127
4.028,56.2001,-0.016918
4.058,56.2001,-0.016918
4.089,56.2001,-0.014501
4.120,56.2001,-0.020544
4.151,56.2001,-0.020544
4.182,56.2001,-0.018127
4.213,56.2001,-0.015710
4.233,56.2001,-0.015710
4.260,56.2001,-0.021752
4.291,56.2001,-0.022961
4.323,56.2001,-0.021752
4.354,56.2001,-0.020544
4.385,56.2001,-0.013293
4.416,56.2001,-0.018127
4.446,56.2001,-0.012084
4.478,56.2001,-0.013293
4.510,56.2001,-0.018127
4.541,56.2001,-0.019335
4.573,56.2001,-0.018127
4.605,56.2001,-0.016918
4.636,56.2001,-0.013293
4.667,56.2001,-0.013293
4.696,56.2001,-0.016918
4.727,56.2001,-0.019335
4.759,56.2001,-0.016918
4.790,56.2001,-0.013293
4.822,56.2001,-0.014501
4.853,56.2001,-0.014501
4.874,56.2001,-0.014501
4.901,56.2001,-0.016918
4.922,56.2001,-0.016918
4.946,56.2001,-0.016918
4.977,56.2001,-0.016918
5.007,56.2001,-0.015710
5.038,56.2001,-0.015710
5.070,56.2001,-0.014501
5.101,56.2001,-0.016918
5.132,56.2001,-0.010876
5.164,56.2001,-0.018127
5.196,56.2001,-0.018127
5.227,56.2001,-0.013293
5.258,56.2001,-0.019335
5.289,56.2001,-0.020544
5.320,56.2001,-0.013293
5.351,56.2001,-0.014501
5.382,56.2001,-0.015710
5.413,56.2001,-0.018127
5.437,56.2001,-0.018127
5.459,56.2001,-0.020544
5.490,56.2001,-0.018127
5.521,56.2001,-0.018127
5.552,56.2001,-0.014501
5.583,56.2001,-0.018127
5.614,56.2001,-0.016918
5.644,56.2001,-0.019335
5.675,56.2001,-0.019335
5.707,56.2001,-0.019335
5.738,56.2001,-0.016918
5.769,56.2001,-0.015710
5.801,56.2001,-0.016918
5.833,56.2001,-0.018127
5.854,56.2001,-0.020544
5.879,56.2001,-0.018127
5.912,56.2001,-0.014501
5.941,56.2001,-0.015710
5.980,56.2001,-0.016918
6.003,56.2001,-0.016918
6.033,56.2001,-0.015710
6.064,56.2001,-0.016918
6.095,56.2001,-0.016918
6.126,56.2001,-0.014501
6.157,56.2001,-0.013293
6.188,56.2001,-0.016918
6.219,56.2001,-0.020544
6.251,56.2001,-0.015710
6.282,56.2001,-0.018127
6.312,56.2001,-0.020544
6.334,56.2001,-0.016918
6.359,56.2001,-0.015710
6.390,56.2001,-0.014501
6.412,56.2001,-0.014501
6.437,56.2001,-0.016918
6.468,56.2001,-0.018127
6.499,56.2001,-0.010876
6.530,56.2001,-0.014501
6.562,56.2001,-0.020544
6.593,56.2001,-0.016918
6.625,56.2001,-0.012084
6.656,56.2001,-0.012084
6.686,56.2001,-0.014501
6.718,56.2001,-0.014501
6.750,56.2001,-0.016918
6.781,56.2001,-0.016918
6.812,56.2001,-0.018127
6.844,56.2001,-0.015710
6.875,56.2001,-0.014501
6.908,56.2001,-0.016918
6.939,56.2001,-0.013293
6.970,56.2001,-0.014501
7.001,56.2001,-0.019335
7.032,56.2001,-0.014501
7.063,56.2001,-0.014501
7.083,56.2001,-0.014501
7.111,56.2001,-0.016918
7.132,56.2001,-0.014501
7.156,56.2001,-0.012084
7.187,56.2001,-0.012084
7.217,56.2001,-0.016918
7.248,56.2001,-0.016918
7.278,56.2001,-0.014501
7.310,56.2001,-0.013293
7.340,56.2001,-0.019335
7.372,56.2001,-0.018127
7.403,56.2001,-0.014501
7.434,56.2001,-0.014501
7.465,56.2001,-0.013293
7.496,56.2001,-0.015710
7.527,56.2001,-0.016918
7.547,56.2001,-0.018127
7.573,56.2001,-0.016918
7.605,56.2001,-0.014501
7.637,56.2001,-0.015710
7.668,56.2001,-0.015710
7.699,56.2001,-0.013293
7.729,56.2001,-0.020544
7.760,56.2001,-0.013293
7.791,56.2001,-0.015710
7.822,56.2001,-0.016918
7.855,56.2001,-0.013293
7.887,56.2001,-0.015710
7.916,56.2001,-0.013293
7.948,56.2001,-0.016918
7.979,56.2001,-0.013293
8.011,56.2001,-0.010876
8.041,56.2001,-0.014501
8.073,56.2001,-0.013293
8.104,56.2001,-0.018127
8.135,56.2001,-0.020544
8.167,56.2001,-0.015710
8.187,56.2001,-0.014501
8.212,56.2001,-0.014501
8.245,56.2001,-0.013293
8.275,56.2001,-0.021752
8.306,56.2001,-0.012084
8.338,56.2001,-0.012084
8.368,56.2001,-0.013293
8.399,56.2001,-0.014501
8.431,56.2001,-0.014501
8.462,56.2001,-0.013293
8.493,56.2001,-0.018127
8.524,56.2001,-0.016918
8.555,56.2001,-0.016918
8.587,56.2001,-0.016918
8.618,56.2001,-0.016918
8.649,56.2001,-0.018127
8.683,56.2001,-0.015710
8.711,56.2001,-0.020544
8.741,56.2001,-0.015710
8.763,56.2001,-0.015710
8.788,56.2001,-0.010876
8.819,56.2001,-0.014501
8.851,56.2001,-0.014501
8.882,56.2001,-0.014501
8.913,56.2001,-0.018127
8.945,56.2001,-0.019335
8.976,56.2001,-0.018127
9.006,56.2001,-0.015710
9.038,56.2001,-0.019335
9.068,56.2001,-0.015710
9.099,56.2001,-0.019335
9.130,56.2001,-0.016918
9.161,56.2001,-0.019335
9.192,56.2001,-0.014501
9.224,56.2001,-0.013293
9.244,56.2001,-0.013293
9.270,56.2001,-0.010876
9.291,56.2001,-0.010876
9.317,56.2001,-0.015710
9.347,56.2001,-0.018127
9.379,56.2001,-0.013293
9.410,56.2001,-0.013293
9.442,56.2001,-0.015710
9.472,56.2001,-0.012084
9.503,56.2001,-0.014501
9.534,56.2001,-0.014501
9.565,56.2001,-0.013293
9.595,56.2001,-0.013293
9.628,56.2001,-0.014501
9.658,56.2001,-0.018127
9.689,56.2001,-0.018127
9.719,56.2001,-0.014501
9.740,56.2001,-0.014501
9.765,56.2001,-0.014501
9.796,56.2001,-0.016918
9.827,56.2001,-0.015710
9.859,56.2001,-0.014501
9.888,56.2001,-0.014501
9.919,56.2001,-0.015710
9.950,56.2001,-0.016918
9.981,56.2001,-0.016918
10.012,56.2001,-0.015710
10.043,56.2001,-0.013293
10.075,56.2001,-0.013293
10.105,56.2001,-0.015710
10.135,56.2001,-0.012084
10.166,56.2001,-0.013293
10.186,56.2001,-0.010876
10.213,56.2001,-0.014501
10.234,56.2001,-0.014501
10.259,56.2001,-0.014501
10.290,56.2001,-0.018127
10.320,56.2001,-0.016918
10.350,56.2001,-0.016918
10.382,56.2001,-0.015710
10.414,56.2001,-0.014501
10.445,56.2001,-0.018127
10.475,56.2001,-0.018127
10.506,56.2001,-0.013293
10.538,56.2001,-0.019335
10.558,56.2001,-0.019335
10.583,56.2001,-0.015710
10.614,56.2001,-0.020544
10.634,56.2001,-0.016918
10.660,56.2001,-0.016918
10.692,56.2001,-0.016918
10.725,56.2001,-0.014501
10.745,56.2001,-0.015710
10.770,56.2001,-0.013293
10.801,56.2001,-0.014501
10.832,56.2001,-0.016918
10.864,56.2001,-0.013293
10.894,56.2001,-0.019335
10.926,56.2001,-0.014501
10.958,56.2001,-0.015710
10.989,56.2001,-0.015710
11.020,56.2001,-0.015710
11.051,56.2001,-0.015710
11.081,56.1564,-0.013293
11.111,55.6926,0.068882
11.142,55.1605,0.065256
11.173,54.6472,0.108760
11.193,54.2952,0.161932
11.222,53.8141,0.224771
11.250,53.3262,0.299695
11.281,52.8043,0.445917
11.311,52.2893,0.380661
11.341,51.7742,0.004834
11.372,51.2420,0.003625
11.403,50.7270,0.004834
11.434,50.2155,0.004834
11.465,50.1501,-0.088217
11.496,50.1501,-0.038670
11.527,50.1501,0.001208
11.557,50.1501,0.000000
11.578,50.1501,0.001208
11.604,50.1501,0.001208
11.635,50.1501,0.004834
11.657,50.1501,0.004834
11.680,50.1501,0.001208
11.711,50.1501,-0.003625
11.741,50.1501,0.002417
11.773,50.1501,0.003625
11.805,50.1501,0.003625
11.835,50.1501,0.003625
11.867,50.4722,-0.053172
11.898,51.0128,-0.087008
11.929,51.5415,-0.009668
11.961,52.0958,0.001208
11.992,52.5956,-0.002417
12.022,53.1089,0.002417
12.054,53.6564,0.004834
12.086,54.2140,0.001208
12.117,54.7324,-0.002417
12.147,55.2527,-0.004834
12.171,55.6403,-0.010876
12.194,56.0437,-0.010876
12.228,56.1501,0.012084
12.249,56.1501,0.012084
12.270,56.1501,-0.015710
12.301,56.1501,-0.053172
12.332,56.1501,-0.047129
12.364,56.1501,-0.044713
12.394,56.1501,-0.044713
12.426,56.1501,-0.038670
12.456,56.1501,-0.037462
12.480,56.1501,-0.038670
12.502,56.1501,-0.037462
12.534,56.1501,-0.037462
12.565,56.1501,-0.035045
12.593,56.1501,-0.035045
12.625,56.1501,-0.030211
12.656,56.1501,-0.030211
12.690,56.1501,-0.031420
12.719,56.1501,-0.032628
12.752,56.1501,-0.026586
12.781,56.1501,-0.027794
12.813,56.1501,-0.025377
12.843,56.1501,-0.026586
12.874,56.1501,-0.026586
12.906,56.1501,-0.026586
12.936,56.1501,-0.029003
12.967,56.1501,-0.029003
13.000,56.1501,-0.029003
13.029,56.1501,-0.024169
13.060,56.1501,-0.030211
13.081,56.1501,-0.025377
13.106,56.1501,-0.025377
13.138,56.1501,-0.025377
13.168,56.1501,-0.026586
13.199,56.1501,-0.026586
13.230,56.1501,-0.022961
13.261,56.1501,-0.021752
13.292,56.1501,-0.022961
13.325,56.1501,-0.024169
13.356,56.1501,-0.024169
13.387,56.1501,-0.025377
13.417,56.1501,-0.027794
13.448,56.1501,-0.021752
13.480,56.1501,-0.019335
13.511,56.1501,-0.019335
13.544,56.1501,-0.025377
13.573,56.1501,-0.025377
13.604,56.1501,-0.021752
13.625,56.1501,-0.025377
13.651,56.1501,-0.025377
13.673,56.1501,-0.022961
13.697,56.1501,-0.020544
13.728,56.1501,-0.019335
13.759,56.1501,-0.022961
13.790,56.1501,-0.022961
13.821,56.1501,-0.022961
13.852,56.1501,-0.021752
13.884,56.1501,-0.021752
13.916,56.1501,-0.021752
13.950,56.1501,-0.020544
13.973,56.1501,-0.022961
14.009,56.1501,-0.024169
14.041,56.1501,-0.021752
14.070,56.1501,-0.019335
14.100,56.1501,-0.020544
14.131,56.1501,-0.019335
14.162,56.1501,-0.022961
14.193,56.1501,-0.021752
14.213,56.1501,-0.016918
14.239,56.1501,-0.021752
14.270,56.1501,-0.026586
14.302,56.1501,-0.021752
14.333,56.1501,-0.021752
14.366,56.1501,-0.022961
14.396,56.1501,-0.022961
14.427,56.1501,-0.019335
14.458,56.1501,-0.019335
14.489,56.1501,-0.020544
14.521,56.1501,-0.020544
14.552,56.1501,-0.020544
14.584,56.1501,-0.021752
14.615,56.1501,-0.016918
14.647,56.1501,-0.016918
14.669,56.1501,-0.020544
14.693,56.1501,-0.019335
14.723,56.1501,-0.020544
14.755,56.1501,-0.018127
14.787,56.1501,-0.016918
14.818,56.1501,-0.021752
14.849,56.1501,-0.020544
14.880,56.1501,-0.020544
14.901,56.1501,-0.020544
14.927,56.1501,-0.016918
14.959,56.1501,-0.018127
14.981,56.1501,-0.018127
15.004,56.1501,-0.021752
15.027,56.1501,-0.021752
15.050,56.1501,-0.020544
15.083,56.1501,-0.019335
15.112,56.1501,-0.021752
15.143,56.1501,-0.014501
15.175,56.1501,-0.018127
15.206,56.1501,-0.018127
15.237,56.1501,-0.020544
15.267,56.1501,-0.020544
15.298,56.1501,-0.020544
15.331,56.1501,-0.018127
15.361,56.1501,-0.019335
15.392,56.1501,-0.019335
15.423,56.1501,-0.020544
15.454,56.1501,-0.020544
15.476,56.1501,-0.024169
15.501,56.1501,-0.018127
15.532,56.1501,-0.015710
15.563,56.1501,-0.013293
15.586,56.1501,-0.016918
15.610,56.1501,-0.016918
15.641,56.1501,-0.021752
15.672,56.1501,-0.018127
15.703,56.1501,-0.015710
15.736,56.1501,-0.018127
15.766,56.1501,-0.016918
15.796,56.1501,-0.014501
15.828,56.1501,-0.015710
15.859,56.1501,-0.019335
15.890,56.1501,-0.019335
15.922,56.1501,-0.015710
15.953,56.1501,-0.019335
15.984,56.1501,-0.015710
16.015,56.1501,-0.012084
16.045,56.1501,-0.015710
16.065,56.1501,-0.020544
16.091,56.1501,-0.020544
16.123,56.1501,-0.013293
16.144,56.1501,-0.013293
16.170,56.1501,-0.015710
16.200,56.1501,-0.016918
16.231,56.1501,-0.015710
16.262,56.1501,-0.021752
16.294,56.1501,-0.019335
16.326,56.1501,-0.016918
16.355,56.1501,-0.019335
16.386,56.1501,-0.019335
16.417,56.1501,-0.019335
16.448,56.1501,-0.024169
16.479,56.1501,-0.018127
16.511,56.1501,-0.013293
16.542,56.1501,-0.018127
16.572,56.1501,-0.018127
16.592,56.1501,-0.014501
16.619,56.1501,-0.016918
16.650,56.1501,-0.018127
16.672,56.1501,-0.016918
16.696,56.1501,-0.019335
16.729,56.1501,-0.019335
16.759,56.1501,-0.016918
16.789,56.1501,-0.016918
16.820,56.1501,-0.019335
16.851,56.1501,-0.019335
16.882,56.1501,-0.019335
16.914,56.1501,-0.019335
16.945,56.1501,-0.019335
16.980,56.1501,-0.020544
17.007,56.1501,-0.020544
17.038,56.1501,-0.019335
17.070,56.1501,-0.021752
17.101,56.1501,-0.018127
17.132,56.1501,-0.016918
17.163,56.1501,-0.015710
17.184,56.1501,-0.015710
17.209,56.1501,-0.021752
17.241,56.1501,-0.018127
17.272,56.1501,-0.015710
17.302,56.1501,-0.019335
17.333,56.1501,-0.019335
17.365,56.1501,-0.018127
17.396,56.1501,-0.015710
17.428,56.1501,-0.016918
17.458,56.1501,-0.015710
17.490,56.1501,-0.014501
17.521,56.1501,-0.018127
17.553,56.1501,-0.018127
17.583,56.1501,-0.016918
17.603,56.1501,-0.016918
17.630,56.1501,-0.014501
17.660,56.1501,-0.018127
17.691,56.1501,-0.016918
17.711,56.1501,-0.015710
17.737,56.1501,-0.014501
17.770,56.1501,-0.019335
17.792,56.1501,-0.016918
17.815,56.1501,-0.016918
17.846,56.1501,-0.019335
17.876,56.1501,-0.018127
17.908,56.1501,-0.018127
17.940,56.1501,-0.018127
17.972,56.1501,-0.016918
18.003,56.1501,-0.021752
18.035,56.1501,-0.021752
18.067,56.1501,-0.018127
18.099,56.1501,-0.016918
18.131,56.1501,-0.016918
18.162,56.1501,-0.016918
18.193,56.1501,-0.016918
18.223,56.1501,-0.015710
18.255,56.1501,-0.016918
18.279,56.1501,-0.018127
18.302,56.1501,-0.018127
18.332,56.1501,-0.015710
18.363,56.1501,-0.016918
18.394,56.1501,-0.015710
18.425,56.1501,-0.016918
18.457,56.1501,-0.013293
18.488,56.1501,-0.013293
18.519,56.1501,-0.018127
18.551,56.1501,-0.013293
18.581,56.1501,-0.010876
18.612,56.1501,-0.016918
18.644,56.1501,-0.014501
18.674,56.1501,-0.018127
18.706,56.1501,-0.020544
18.726,56.1501,-0.019335
18.752,56.1501,-0.019335
18.783,56.1501,-0.013293
18.814,56.1501,-0.018127
18.837,56.1501,-0.021752
18.861,56.1501,-0.020544
18.892,56.1501,-0.016918
18.923,56.1501,-0.016918
18.955,56.1501,-0.016918
18.986,56.1501,-0.014501
19.016,56.1501,-0.014501
19.047,56.1501,-0.014501
19.079,56.1501,-0.019335
19.110,56.1501,-0.016918
19.140,56.1501,-0.015710
19.171,56.1501,-0.018127
19.203,56.1501,-0.019335
19.234,56.1501,-0.020544
19.265,56.1501,-0.008459
19.297,56.1501,-0.015710
19.317,56.1501,-0.018127
19.342,56.1501,-0.018127
19.374,56.1501,-0.016918
19.405,56.1501,-0.019335
19.436,56.1501,-0.012084
19.467,56.1501,-0.010876
19.499,56.1501,-0.018127
19.531,56.1501,-0.018127
19.562,56.1501,-0.012084
19.593,56.1501,-0.015710
19.623,56.1501,-0.016918
19.655,56.1501,-0.016918
19.686,56.1501,-0.018127
19.718,56.1501,-0.015710
19.748,56.1501,-0.016918
19.780,56.1501,-0.019335
19.812,56.1501,-0.019335
19.843,56.1501,-0.016918
19.874,56.1501,-0.016918
19.905,56.1501,-0.014501
19.936,56.1501,-0.015710
19.967,56.1501,-0.016918
19.988,56.1501,-0.018127
20.013,56.1501,-0.018127
20.044,56.1501,-0.012084
20.075,56.1501,-0.013293
20.105,56.1501,-0.014501
20.137,56.1501,-0.015710
20.168,56.1501,-0.015710
20.200,56.1501,-0.014501
20.232,56.1501,-0.016918
20.263,56.1501,-0.010876
20.294,56.1501,-0.010876
20.324,56.1501,-0.016918
20.355,56.1501,-0.013293
20.386,56.1501,-0.013293
20.416,56.1501,-0.018127
20.437,56.1501,-0.018127
20.462,56.1501,-0.015710
20.493,56.1501,-0.014501
20.524,56.1501,-0.015710
20.555,56.1501,-0.018127
20.586,56.1501,-0.015710
20.616,56.1501,-0.015710
20.647,56.1501,-0.014501
20.678,56.1501,-0.013293
20.710,56.1501,-0.015710
20.741,56.1501,-0.020544
20.771,56.1501,-0.020544
20.803,56.1501,-0.013293
20.835,56.1501,-0.014501
20.866,56.1501,-0.018127
20.897,56.1501,-0.019335
20.927,56.1501,-0.015710
20.949,56.1501,-0.015710
20.974,56.1501,-0.015710
21.005,56.1501,-0.015710
21.036,56.1501,-0.020544
21.067,56.1501,-0.016918
21.098,56.1501,-0.015710
21.128,56.1501,-0.016918
21.159,56.1501,-0.013293
21.189,56.1501,-0.018127
21.220,56.1501,-0.014501
21.251,56.1501,-0.016918
21.282,56.1501,-0.014501
21.314,56.1501,-0.014501
21.344,56.1501,-0.019335
21.364,56.1501,-0.019335
21.390,56.1501,-0.014501
21.422,56.1501,-0.014501
21.453,56.1501,-0.015710
21.484,56.1501,-0.010876
21.515,56.1501,-0.018127
21.546,56.1501,-0.018127
21.577,56.1501,-0.013293
21.608,56.1501,-0.015710
21.639,56.1501,-0.018127
21.670,56.1501,-0.014501
21.702,56.1501,-0.013293
21.733,56.1501,-0.013293
21.765,56.1501,-0.014501
21.796,56.1501,-0.021752
21.827,56.1501,-0.012084
21.858,56.1501,-0.015710
21.889,56.1501,-0.016918
21.920,56.1501,-0.015710
21.951,56.1501,-0.014501
21.972,56.1501,-0.014501
21.998,56.1501,-0.012084
22.029,56.1501,-0.014501
22.063,56.1501,-0.014501
22.084,56.1501,-0.013293
22.107,56.1501,-0.016918
22.137,56.1501,-0.020544
22.169,56.1501,-0.016918
22.200,56.1501,-0.015710
22.232,56.1501,-0.015710
22.264,56.1501,-0.015710
22.295,56.1501,-0.016918
22.331,56.1501,-0.013293
22.357,56.1501,-0.014501
22.387,56.1501,-0.013293
22.418,56.1501,-0.014501
22.450,56.1501,-0.014501
22.480,56.1501,-0.014501
22.511,56.1501,-0.014501
22.532,56.1501,-0.009668
22.559,56.1501,-0.013293
22.580,56.1501,-0.014501
22.603,56.1501,-0.014501
22.643,56.1501,-0.015710
22.666,56.1501,-0.015710
22.697,56.1501,-0.014501
22.727,56.1501,-0.016918
22.759,56.1501,-0.015710
22.790,56.1501,-0.010876
22.821,56.1501,-0.015710
22.851,56.1501,-0.012084
22.883,56.1501,-0.010876
22.914,56.1501,-0.013293
22.945,56.1501,-0.018127
22.976,56.1501,-0.014501
23.008,56.1501,-0.013293
23.039,56.1501,-0.016918
23.060,56.1501,-0.015710
23.085,56.1501,-0.015710
23.117,56.1501,-0.010876
23.149,56.1501,-0.014501
23.179,56.1501,-0.021752
23.211,56.1501,-0.019335
23.241,56.1501,-0.018127
23.271,56.1501,-0.014501
23.303,56.1501,-0.016918
23.335,56.1501,-0.014501
23.365,56.1501,-0.016918
23.396,56.1501,-0.016918
23.427,56.1501,-0.013293
23.459,56.1501,-0.014501
23.489,56.1501,-0.018127
23.520,56.1501,-0.014501
23.551,56.1501,-0.014501
23.582,56.1501,-0.012084
23.603,56.1501,-0.012084
23.630,56.1501,-0.013293
23.661,56.1501,-0.014501
23.691,56.1501,-0.013293
23.723,56.1501,-0.010876
23.754,56.1501,-0.015710
23.785,56.1501,-0.013293
23.808,56.1501,-0.015710
23.830,56.1501,-0.015710
23.861,56.1494,-0.012084
23.892,55.7619,-0.018127
23.923,55.2199,0.053172
23.954,54.6932,0.053172
23.986,54.1511,0.140180
24.017,53.6245,0.276735
24.050,53.0618,0.428999
24.079,52.5471,0.399996
24.110,52.0291,0.012084
