Elapsed Time (s),Position (mm),Force (N)
-0.013,78.1515,-0.026806
0.095,78.1515,-0.026806
0.203,78.1515,-0.026806
0.315,78.1515,-0.025665
0.423,78.1515,-0.025665
0.534,78.1515,-0.024647
0.643,78.1515,-0.024647
0.751,78.1515,-0.023856
0.860,78.1515,-0.023856
0.970,78.1515,-0.023205
1.079,78.1515,-0.023205
1.187,78.1515,-0.023205
1.296,78.1515,-0.022583
1.405,78.1515,-0.022583
1.515,78.1515,-0.022084
1.624,78.1515,-0.022084
1.733,78.1515,-0.021603
1.842,78.1515,-0.021603
1.952,78.1515,-0.021603
2.062,78.1515,-0.021141
2.172,78.1515,-0.021141
2.283,78.1515,-0.020783
2.392,78.1515,-0.020783
2.502,78.1515,-0.020453
2.609,78.1515,-0.020453
2.718,78.1515,-0.020142
2.830,78.1515,-0.020142
2.938,78.1515,-0.020142
3.047,78.1515,-0.019765
3.157,78.1515,-0.019765
3.269,78.1515,-0.019511
3.378,78.1515,-0.019511
3.487,78.1515,-0.019416
3.597,78.1515,-0.019416
3.707,78.1515,-0.019416
3.820,78.1515,-0.019690
3.928,78.1515,-0.019690
4.038,78.1515,-0.020274
4.148,78.1483,-0.020274
4.257,78.1361,-0.020491
4.365,78.1162,-0.020491
4.474,78.0943,-0.015297
4.584,78.0724,-0.015297
4.694,78.0502,-0.015297
4.803,78.0286,-0.001612
4.912,78.0069,-0.001612
5.020,77.9852,0.013940
5.129,77.9634,0.013940
5.239,77.9412,0.013940
5.349,77.9195,0.027070
5.456,77.8979,0.027070
5.566,77.8759,0.039474
5.675,77.8541,0.039474
5.785,77.8321,0.052170
5.894,77.8102,0.052170
6.003,77.7885,0.052170
6.112,77.7669,0.065554
6.222,77.7448,0.079616
6.330,77.7233,0.079616
6.439,77.7014,0.079616
6.546,77.6798,0.094650
6.657,77.6579,0.094650
6.764,77.6364,0.111191
6.873,77.6145,0.111191
6.982,77.5927,0.129335
7.091,77.5711,0.129335
7.201,77.5491,0.129335
7.310,77.5272,0.149195
7.420,77.5051,0.149195
7.531,77.4829,0.170977
7.638,77.4616,0.170977
7.747,77.4397,0.195030
7.857,77.4177,0.195030
7.966,77.3961,0.195030
8.073,77.3746,0.221601
8.183,77.3524,0.221601
8.291,77.3311,0.250980
8.400,77.3093,0.250980
8.511,77.2869,0.283695
8.619,77.2654,0.283695
8.727,77.2438,0.320398
8.837,77.2217,0.320398
8.949,77.1994,0.320398
9.058,77.1774,0.361294
9.168,77.1555,0.361294
9.277,77.1336,0.406753
9.387,77.1118,0.406753
9.496,77.0900,0.457330
9.605,77.0682,0.457330
9.714,77.0463,0.457330
9.824,77.0245,0.513892
9.932,77.0027,0.513892
10.042,76.9809,0.577042
10.150,76.9590,0.577042
10.259,76.9373,0.646997
10.369,76.9154,0.646997
10.477,76.8938,0.724757
10.586,76.8720,0.724757
10.695,76.8503,0.724757
10.804,76.8283,0.810377
10.913,76.8066,0.810377
11.024,76.7844,0.903849
11.133,76.7627,0.903849
11.240,76.7411,1.005690
11.351,76.7190,1.005690
11.459,76.6975,1.005690
11.568,76.6755,1.115374
11.678,76.6534,1.115374
11.786,76.6320,1.231184
11.895,76.6103,1.231184
12.004,76.5883,1.335334
12.115,76.5661,1.335334
12.225,76.5442,1.335334
12.335,76.5222,0.832998
12.445,76.5003,0.832998
12.554,76.4783,0.147225
12.664,76.4565,0.147225
12.773,76.4347,0.008106
12.883,76.4126,0.008106
12.992,76.3907,0.008106
13.100,76.3692,0.007493
13.210,76.3471,0.007493
13.321,76.3249,0.007587
13.430,76.3032,0.007587
13.540,76.2811,0.007455
13.651,76.2592,0.007455
13.760,76.2373,0.007455
13.870,76.2153,0.007314
13.977,76.1938,0.007314
14.085,76.1722,0.007210
14.194,76.1503,0.007210
14.302,76.1288,0.007069
14.411,76.1071,0.007069
14.520,76.0853,0.006928
14.630,76.0631,0.006928
14.740,76.0410,0.006852
14.848,76.0197,0.006852
14.957,75.9977,0.006852
15.066,75.9759,0.006777
15.176,75.9538,0.006777
15.286,75.9321,0.006645
15.394,75.9104,0.006645
15.505,75.8883,0.006532
15.614,75.8665,0.006532
15.723,75.8447,0.006419
15.830,75.8232,0.006419
15.940,75.8013,0.006419
16.050,75.7789,0.006400
16.159,75.7575,0.006400
16.269,75.7354,0.006372
16.377,75.7140,0.006372
16.486,75.6920,0.006268
16.595,75.6703,0.006268
16.703,75.6487,0.006268
16.812,75.6268,0.006155
16.922,75.6049,0.006155
17.033,75.5827,0.006061
17.142,75.5609,0.006061
17.250,75.5392,0.006032
17.359,75.5173,0.006032
17.472,75.4948,0.006032
17.576,75.4741,0.005966
17.688,75.4518,0.005966
17.798,75.4297,0.005853
17.904,75.4085,0.005853
18.013,75.3865,0.005806
18.123,75.3647,0.005806
18.232,75.3429,0.005721
18.339,75.3213,0.005721
18.449,75.2995,0.005721
18.558,75.2776,0.005693
18.667,75.2558,0.005693
18.775,75.2342,0.005627
18.886,75.2120,0.005627
18.995,75.1903,0.005618
19.105,75.1682,0.005618
19.215,75.1462,0.005618
19.324,75.1246,0.005627
19.434,75.1086,0.005627
19.542,75.1019,0.005495
19.652,75.1015,0.005495
19.763,75.1015,0.005401
19.873,75.1015,0.005401
19.983,75.1015,0.005354
20.092,75.1015,0.005354
20.203,75.1015,0.005354
20.312,75.1045,0.005354
20.421,75.1162,0.005354
20.528,75.1359,0.005222
20.636,75.1575,0.005222
20.745,75.1793,0.005137
20.855,75.2012,0.005137
20.963,75.2227,0.005137
21.073,75.2448,0.005156
21.182,75.2667,0.005156
21.290,75.2883,0.005099
21.399,75.3103,0.005099
21.508,75.3318,0.005024
21.618,75.3538,0.005024
21.725,75.3752,0.004967
21.834,75.3971,0.004967
21.943,75.4189,0.004967
22.052,75.4406,0.004948
22.160,75.4623,0.004948
22.270,75.4844,0.004911
22.379,75.5061,0.004911
22.488,75.5279,0.004892
22.596,75.5495,0.004892
22.705,75.5713,0.004892
22.815,75.5932,0.004892
22.923,75.6149,0.004892
23.032,75.6366,0.004864
23.140,75.6583,0.004864
23.249,75.6801,0.004798
23.358,75.7018,0.004798
23.468,75.7239,0.004750
23.576,75.7455,0.004750
23.685,75.7674,0.004750
23.794,75.7891,0.004779
23.902,75.8106,0.004779
24.009,75.8321,0.004741
24.117,75.8536,0.004741
24.226,75.8756,0.004675
24.335,75.8973,0.004675
24.443,75.9188,0.004675
24.553,75.9408,0.004647
24.662,75.9626,0.004647
24.772,75.9846,0.004637
24.882,76.0066,0.004637
24.990,76.0282,0.004600
25.100,76.0503,0.004600
25.210,76.0721,0.004600
25.318,76.0938,0.004534
25.426,76.1154,0.004534
25.535,76.1372,0.004543
25.645,76.1593,0.004543
25.754,76.1813,0.004524
25.865,76.2031,0.004524
25.974,76.2251,0.004458
26.082,76.2468,0.004458
26.190,76.2682,0.004458
26.299,76.2902,0.004486
26.408,76.3117,0.004486
26.518,76.3338,0.004468
26.626,76.3555,0.004468
26.735,76.3774,0.004515
26.843,76.3989,0.004515
26.953,76.4209,0.004515
27.062,76.4425,0.004524
27.172,76.4645,0.004524
27.280,76.4862,0.004449
27.388,76.5080,0.004449
27.497,76.5295,0.004439
27.605,76.5511,0.004439
27.713,76.5727,0.004439
27.822,76.5948,0.004439
27.931,76.6162,0.004439
28.040,76.6384,0.004336
28.151,76.6604,0.004336
28.259,76.6822,0.004298
28.368,76.7037,0.004298
28.478,76.7257,0.004326
28.587,76.7477,0.004326
28.698,76.7696,0.004326
28.806,76.7915,0.004279
28.918,76.8138,0.004279
29.028,76.8356,0.004336
29.138,76.8577,0.004336
29.247,76.8796,0.004279
29.358,76.9018,0.004279
29.466,76.9234,0.004279
29.574,76.9450,0.004232
29.683,76.9668,0.004232
29.794,76.9889,0.004223
29.904,77.0111,0.004223
30.010,77.0322,0.004204
30.121,77.0544,0.004204
30.229,77.0761,0.004223
30.339,77.0982,0.004223
30.448,77.1198,0.004223
30.558,77.1417,0.004119
30.668,77.1637,0.004119
30.776,77.1852,0.004062
30.885,77.2073,0.004062
30.995,77.2291,0.004034
31.103,77.2507,0.004034
31.212,77.2727,0.004034
31.320,77.2941,0.003949
31.430,77.3162,0.003949
31.541,77.3383,0.003836
31.650,77.3602,0.003836
31.759,77.3821,0.003704
31.869,77.4040,0.003704
31.977,77.4256,0.003516
32.087,77.4476,0.003516
32.195,77.4690,0.003516
32.305,77.4911,0.003176
32.413,77.5129,0.003176
32.523,77.5347,0.002837
32.631,77.5563,0.002837
32.741,77.5783,0.002385
32.850,77.6002,0.002385
32.958,77.6218,0.002385
33.068,77.6438,0.001621
33.177,77.6657,0.001621
33.287,77.6875,0.000669
33.396,77.7094,0.000669
33.504,77.7309,-0.000594
33.613,77.7526,-0.000594
33.720,77.7741,-0.002366
33.830,77.7962,-0.002366
33.939,77.8180,-0.002366
34.050,77.8401,-0.004741
34.159,77.8620,-0.004741
34.268,77.8837,-0.007597
34.377,77.9057,-0.007597
34.488,77.9276,-0.011047
34.595,77.9491,-0.011047
34.704,77.9709,-0.011047
34.814,77.9929,-0.015090
34.922,78.0145,-0.015090
35.030,78.0362,-0.019341
35.140,78.0582,-0.019341
35.250,78.0799,-0.023733
35.358,78.0950,-0.023733
35.467,78.1014,-0.023733
35.575,78.1015,-0.027503
35.686,78.1015,-0.027503
35.794,78.1015,-0.028493
35.904,78.1015,-0.028493
36.013,78.1015,-0.027239
36.123,78.1015,-0.027239
36.234,78.1015,-0.025901
36.344,78.1015,-0.025901
36.454,78.1015,-0.025901
36.564,78.1015,-0.024864
36.672,78.1015,-0.024864
36.782,78.1015,-0.024063
36.892,78.1015,-0.024063
37.001,78.1015,-0.023337
37.111,78.1015,-0.023337
37.219,78.1015,-0.022687
37.329,78.1015,-0.022687
37.437,78.1015,-0.022687
37.546,78.1015,-0.022112
37.654,78.1015,-0.022112
37.763,78.1015,-0.021594
37.872,78.1015,-0.021594
37.982,78.1015,-0.021141
38.092,78.1015,-0.021141
38.202,78.1015,-0.021141
38.311,78.1015,-0.020726
38.420,78.1015,-0.020726
38.530,78.1015,-0.020368
38.639,78.1015,-0.020368
38.748,78.1015,-0.020368
38.857,78.1015,-0.020048
38.967,78.1015,-0.020048
39.076,78.1015,-0.019737
39.184,78.1015,-0.019737
39.294,78.1015,-0.019501
39.406,78.1015,-0.019501
39.516,78.1015,-0.019388
39.626,78.1015,-0.019388
39.736,78.1015,-0.019803
39.845,78.1015,-0.019803
39.954,78.1015,-0.019803
40.064,78.0982,-0.020453
40.173,78.0860,-0.020453
40.282,78.0657,-0.019539
40.391,78.0439,-0.019539
40.499,78.0224,-0.011226
40.608,78.0004,-0.011226
40.718,77.9785,0.004204
40.829,77.9564,0.004204
40.938,77.9345,0.004204
41.048,77.9125,0.018860
41.158,77.8906,0.018860
41.265,77.8691,0.031490
41.374,77.8472,0.031490
41.482,77.8258,0.043866
41.593,77.8035,0.043866
41.701,77.7818,0.043866
41.812,77.7596,0.056750
41.921,77.7380,0.056750
42.030,77.7161,0.070474
42.139,77.6944,0.070474
42.247,77.6727,0.084838
42.357,77.6507,0.084838
42.470,77.6280,0.084838
42.576,77.6068,0.100484
42.686,77.5848,0.100484
42.795,77.5631,0.117704
42.904,77.5413,0.117704
43.014,77.5195,0.136442
43.123,77.4974,0.136442
43.231,77.4760,0.156989
43.340,77.4541,0.156989
43.448,77.4324,0.156989
43.557,77.4107,0.179582
43.667,77.3886,0.179582
43.776,77.3669,0.204541
43.886,77.3449,0.204541
43.998,77.3227,0.204541
44.105,77.3011,0.232119
44.215,77.2791,0.232119
44.324,77.2573,0.262818
44.435,77.2351,0.262818
44.544,77.2134,0.297070
44.655,77.1911,0.297070
44.767,77.1689,0.335299
44.875,77.1470,0.335299
44.984,77.1255,0.377921
45.093,77.1034,0.377921
45.202,77.0818,0.377921
45.312,77.0597,0.425472
45.420,77.0382,0.425472
45.529,77.0163,0.478773
45.637,76.9945,0.478773
45.747,76.9728,0.537813
45.856,76.9510,0.537813
45.964,76.9293,0.537813
46.073,76.9076,0.602679
46.183,76.8855,0.602679
46.293,76.8636,0.674830
46.404,76.8413,0.674830
46.514,76.8195,0.755248
46.623,76.7974,0.755248
46.734,76.7752,0.843847
46.843,76.7536,0.843847
46.952,76.7318,0.843847
47.060,76.7101,0.940523
47.170,76.6883,0.940523
47.279,76.6665,1.045352
47.389,76.6444,1.045352
47.499,76.6222,1.157430
47.606,76.6010,1.157430
47.716,76.5789,1.157430
47.825,76.5571,1.270563
47.934,76.5354,1.270563
48.044,76.5134,1.129107
48.154,76.4913,1.129107
48.265,76.4693,0.472486
48.373,76.4474,0.472486
48.480,76.4261,0.009982
48.590,76.4041,0.009982
48.700,76.3822,0.009982
48.810,76.3602,0.007333
48.917,76.3387,0.007333
49.026,76.3170,0.007550
49.134,76.2954,0.007550
49.243,76.2734,0.007484
49.355,76.2511,0.007484
49.462,76.2298,0.007484
49.571,76.2081,0.007352
49.680,76.1862,0.007352
49.789,76.1643,0.007173
49.898,76.1426,0.007173
50.008,76.1207,0.007031
50.116,76.0988,0.007031
50.225,76.0772,0.006918
50.335,76.0550,0.006918
50.445,76.0333,0.006918
50.553,76.0116,0.006805
50.662,75.9899,0.006805
50.768,75.9686,0.006673
50.879,75.9464,0.006673
50.988,75.9245,0.006673
51.097,75.9028,0.006532
51.208,75.8806,0.006532
51.316,75.8589,0.006456
51.427,75.8367,0.006456
51.535,75.8153,0.006390
51.643,75.7935,0.006390
51.752,75.7719,0.006334
51.861,75.7500,0.006334
51.970,75.7282,0.006249
52.078,75.7065,0.006249
52.188,75.6844,0.006249
52.297,75.6626,0.006145
52.407,75.6408,0.006145
52.515,75.6191,0.006089
52.625,75.5971,0.006089
52.734,75.5753,0.006013
52.843,75.5537,0.006013
52.952,75.5318,0.006013
53.062,75.5098,0.005938
53.171,75.4881,0.005938
53.281,75.4660,0.005853
53.390,75.4442,0.005853
53.499,75.4222,0.005797
53.607,75.4009,0.005797
53.715,75.3793,0.005797
53.825,75.3571,0.005749
53.934,75.3354,0.005749
54.043,75.3136,0.005721
54.152,75.2917,0.005721
54.261,75.2701,0.005665
54.370,75.2480,0.005665
54.479,75.2265,0.005580
54.589,75.2042,0.005580
54.698,75.1825,0.005580
54.809,75.1603,0.005523
54.917,75.1389,0.005523
55.026,75.1170,0.005542
55.136,75.0951,0.005542
55.244,75.0736,0.005542
55.353,75.0581,0.005542
55.461,75.0518,0.005542
55.571,75.0515,0.005401
55.680,75.0515,0.005401
55.788,75.0515,0.005269
55.898,75.0515,0.005269
56.008,75.0515,0.005269
56.118,75.0544,0.005269
56.228,75.0662,0.005212
56.338,75.0865,0.005212
56.447,75.1082,0.005212
56.555,75.1298,0.005118
56.665,75.1519,0.005118
56.774,75.1736,0.005052
56.884,75.1957,0.005052
56.992,75.2174,0.005005
57.100,75.2388,0.005005
57.211,75.2610,0.005005
57.319,75.2826,0.004977
57.428,75.3046,0.004977
57.537,75.3261,0.004967
57.646,75.3480,0.004967
57.754,75.3697,0.004901
57.864,75.3917,0.004901
57.973,75.4134,0.004901
58.084,75.4355,0.004807
58.192,75.4572,0.004807
58.301,75.4791,0.004826
58.410,75.5009,0.004826
58.520,75.5228,0.004835
58.627,75.5442,0.004835
58.738,75.5665,0.004798
58.848,75.5883,0.004798
58.958,75.6104,0.004798
59.068,75.6323,0.004769
59.175,75.6538,0.004769
59.285,75.6758,0.004741
59.393,75.6973,0.004741
59.502,75.7192,0.004732
59.609,75.7406,0.004732
59.717,75.7622,0.004647
59.828,75.7844,0.004647
59.936,75.8061,0.004647
60.044,75.8276,0.004600
60.154,75.8496,0.004600
60.263,75.8713,0.004571
60.374,75.8938,0.004571
60.483,75.9154,0.004571
60.592,75.9371,0.004562
60.700,75.9589,0.004562
60.810,75.9809,0.004581
60.919,76.0026,0.004581
61.027,76.0243,0.004562
61.140,76.0470,0.004562
61.246,76.0680,0.004552
61.353,76.0894,0.004552
61.462,76.1113,0.004552
61.572,76.1332,0.004534
61.680,76.1550,0.004534
61.791,76.1769,0.004486
61.901,76.1989,0.004486
62.010,76.2208,0.004496
62.119,76.2427,0.004496
62.227,76.2641,0.004439
62.335,76.2857,0.004439
62.444,76.3075,0.004439
62.555,76.3297,0.004439
62.663,76.3513,0.004439
62.773,76.3734,0.004486
62.884,76.3956,0.004486
62.993,76.4174,0.004411
63.102,76.4392,0.004411
63.211,76.4609,0.004411
63.321,76.4829,0.004364
63.429,76.5047,0.004364
63.538,76.5263,0.004326
63.646,76.5481,0.004326
63.756,76.5701,0.004345
63.866,76.5919,0.004345
63.974,76.6137,0.004336
64.084,76.6356,0.004336
64.193,76.6574,0.004336
64.302,76.6791,0.004289
64.410,76.7008,0.004289
64.518,76.7224,0.004213
64.628,76.7443,0.004213
64.737,76.7662,0.004185
64.844,76.7875,0.004185
64.954,76.8095,0.004185
65.062,76.8310,0.004213
65.171,76.8530,0.004213
65.280,76.8748,0.004204
65.389,76.8965,0.004204
65.499,76.9187,0.004213
65.608,76.9404,0.004213
65.718,76.9622,0.004175
65.826,76.9840,0.004175
65.936,77.0059,0.004175
66.046,77.0279,0.004119
66.154,77.0497,0.004119
66.263,77.0713,0.004119
66.372,77.0931,0.004119
66.481,77.1152,0.004062
66.591,77.1369,0.004062
66.699,77.1585,0.004062
66.807,77.1803,0.003978
66.916,77.2020,0.003978
67.025,77.2238,0.003978
67.135,77.2458,0.003893
67.243,77.2675,0.003789
67.353,77.2893,0.003789
67.462,77.3111,0.003789
67.571,77.3330,0.003676
67.678,77.3543,0.003676
67.786,77.3760,0.003525
67.894,77.3976,0.003525
68.004,77.4196,0.003261
68.113,77.4412,0.003261
68.222,77.4632,0.002903
68.332,77.4850,0.002903
68.440,77.5068,0.002903
68.547,77.5283,0.002451
68.658,77.5502,0.002451
68.767,77.5722,0.001800
68.874,77.5934,0.001800
68.984,77.6154,0.000820
69.094,77.6377,0.000820
69.203,77.6593,0.000820
69.311,77.6808,-0.000434
69.419,77.7025,-0.000434
69.527,77.7241,-0.002055
69.636,77.7461,-0.002055
69.746,77.7679,-0.004251
69.856,77.7899,-0.004251
69.967,77.8121,-0.004251
70.075,77.8338,-0.007050
70.185,77.8558,-0.007050
70.294,77.8775,-0.010349
70.401,77.8989,-0.010349
70.510,77.9209,-0.014223
70.619,77.9425,-0.014223
70.727,77.9641,-0.014223
70.835,77.9858,-0.018389
70.944,78.0075,-0.018389
71.054,78.0295,-0.022696
71.164,78.0448,-0.022696
71.274,78.0514,-0.026815
71.385,78.0515,-0.026815
71.494,78.0515,-0.028427
71.602,78.0515,-0.028427
71.711,78.0515,-0.028427
71.821,78.0515,-0.027418
71.929,78.0515,-0.027418
72.040,78.0515,-0.026052
72.150,78.0515,-0.026052
72.261,78.0515,-0.024940
72.371,78.0515,-0.024940
72.481,78.0515,-0.024063
72.591,78.0515,-0.024063
72.698,78.0515,-0.024063
72.806,78.0515,-0.023328
72.918,78.0515,-0.023328
73.026,78.0515,-0.022649
73.135,78.0515,-0.022649
73.244,78.0515,-0.022055
73.352,78.0515,-0.022055
73.463,78.0515,-0.022055
73.574,78.0515,-0.021518
73.684,78.0515,-0.021518
73.792,78.0515,-0.021066
73.901,78.0515,-0.021066
74.010,78.0515,-0.020670
74.119,78.0515,-0.020670
74.229,78.0515,-0.020670
74.339,78.0515,-0.020331
74.449,78.0515,-0.020331
74.558,78.0515,-0.019972
74.665,78.0515,-0.019972
74.775,78.0515,-0.019680
74.885,78.0515,-0.019680
74.991,78.0515,-0.019435
75.100,78.0515,-0.019435
75.209,78.0515,-0.019435
75.318,78.0515,-0.019143
75.427,78.0515,-0.019143
75.536,78.0515,-0.019039
75.645,78.0515,-0.019039
75.755,78.0515,-0.019463
75.866,78.0515,-0.019463
75.976,78.0515,-0.020133
76.086,78.0470,-0.020133
76.196,78.0329,-0.020133
76.306,78.0117,-0.019379
76.414,77.9900,-0.019379
76.523,77.9682,-0.011245
76.632,77.9465,-0.011245
76.742,77.9245,0.004119
76.852,77.9026,0.004119
76.961,77.8806,0.004119
77.070,77.8589,0.018851
77.178,77.8374,0.018851
77.288,77.8152,0.031556
77.397,77.7936,0.031556
77.505,77.7717,0.044007
77.614,77.7502,0.044007
77.725,77.7281,0.057014
77.832,77.7064,0.057014
77.941,77.6848,0.057014
78.052,77.6624,0.070634
78.162,77.6407,0.070634
78.269,77.6191,0.084951
78.378,77.5971,0.084951
78.487,77.5755,0.100720
78.598,77.5533,0.100720
78.707,77.5315,0.100720
78.816,77.5097,0.117997
78.924,77.4881,0.117997
79.033,77.4664,0.136829
79.141,77.4447,0.136829
79.251,77.4227,0.157404
79.360,77.4008,0.157404
79.468,77.3793,0.157404
79.579,77.3571,0.180091
79.687,77.3356,0.180091
79.794,77.3142,0.205200
79.904,77.2920,0.205200
80.013,77.2704,0.232892
80.122,77.2486,0.232892
80.231,77.2267,0.263647
80.340,77.2050,0.263647
80.451,77.1829,0.263647
80.559,77.1612,0.298144
80.670,77.1389,0.298144
80.780,77.1169,0.336619
80.890,77.0950,0.336619
80.999,77.0731,0.379335
81.109,77.0513,0.379335
81.220,77.0290,0.427225
81.329,77.0071,0.427225
81.435,76.9861,0.427225
81.544,76.9642,0.480592
81.653,76.9424,0.480592
81.762,76.9206,0.539906
81.872,76.8984,0.539906
81.980,76.8768,0.539906
82.088,76.8555,0.605601
82.197,76.8335,0.605601
82.308,76.8114,0.678667
82.419,76.7891,0.678667
82.527,76.7674,0.759669
82.637,76.7456,0.759669
82.746,76.7239,0.848494
82.853,76.7022,0.848494
82.962,76.6806,0.848494
83.071,76.6588,0.945471
83.178,76.6374,0.945471
83.288,76.6155,0.945471
83.396,76.5937,1.049688
83.504,76.5722,1.161869
83.613,76.5502,1.161869
83.720,76.5288,1.161869
83.828,76.5075,1.280959
83.937,76.4856,1.280959
84.046,76.4635,1.393367
84.156,76.4418,1.393367
84.265,76.4200,0.941494
84.374,76.3982,0.941494
84.482,76.3766,0.223194
84.591,76.3548,0.223194
84.700,76.3330,0.223194
84.810,76.3110,0.007946
84.918,76.2893,0.007946
85.029,76.2672,0.007946
85.137,76.2455,0.007305
85.245,76.2241,0.007324
85.354,76.2021,0.007324
85.463,76.1803,0.007324
85.571,76.1587,0.007314
85.681,76.1367,0.007314
85.792,76.1147,0.007201
85.904,76.0922,0.007201
86.011,76.0709,0.007022
86.119,76.0491,0.007022
86.229,76.0272,0.007022
86.338,76.0054,0.006956
86.446,75.9838,0.006956
86.555,75.9620,0.006871
86.664,75.9402,0.006871
86.773,75.9185,0.006692
86.883,75.8964,0.006692
86.992,75.8747,0.006617
87.102,75.8526,0.006617
87.213,75.8304,0.006617
87.322,75.8087,0.006522
87.431,75.7869,0.006522
87.540,75.7652,0.006447
87.649,75.7432,0.006447
87.760,75.7209,0.006343
87.870,75.6991,0.006343
87.980,75.6771,0.006202
88.089,75.6550,0.006202
88.197,75.6336,0.006202
88.307,75.6116,0.006108
88.416,75.5899,0.006108
88.522,75.5686,0.005995
88.632,75.5468,0.005995
88.742,75.5247,0.005985
88.850,75.5030,0.005985
88.959,75.4812,0.005985
89.068,75.4593,0.006013
89.177,75.4376,0.006013
89.287,75.4156,0.005929
89.397,75.3935,0.005929
89.506,75.3719,0.005825
89.614,75.3503,0.005825
89.722,75.3286,0.005825
89.832,75.3067,0.005797
89.941,75.2847,0.005797
90.050,75.2629,0.005740
90.159,75.2413,0.005740
