Elapsed Time (s),Position (mm),Force (N)
-0.015,69.4093,-0.377601
0.016,69.4093,-0.377601
0.047,69.4093,-0.377601
0.077,69.4093,-0.377601
0.109,69.4093,-0.288664
0.140,69.4093,-0.288664
0.172,69.4093,-0.288664
0.203,69.4093,-0.288664
0.233,69.4093,-0.288664
0.264,69.4093,-0.288664
0.295,69.4093,-0.288664
0.327,69.4093,-0.288664
0.357,69.4093,-0.288664
0.388,69.4093,-0.184914
0.419,69.4093,-0.184914
0.450,69.4093,-0.184914
0.482,69.4093,-0.184914
0.513,69.4093,-0.184914
0.545,69.4093,-0.184914
0.577,69.4093,-0.184914
0.608,69.4093,-0.160014
0.640,69.4093,-0.160014
0.672,69.4093,-0.160014
0.701,69.4093,-0.160014
0.732,69.4093,-0.160014
0.764,69.4093,-0.160014
0.794,69.4093,-0.160014
0.826,69.4093,-0.160014
0.857,69.4093,-0.148656
0.888,69.4093,-0.148656
0.918,69.4093,-0.148656
0.950,69.4093,-0.148656
0.981,69.4093,-0.148656
1.012,69.4093,-0.148656
1.044,69.4093,-0.148656
1.074,69.4093,-0.148656
1.105,69.4093,-0.148656
1.137,69.4093,-0.141099
1.169,69.4093,-0.141099
1.200,69.4093,-0.141099
1.231,69.4093,-0.141099
1.262,69.4093,-0.141099
1.293,69.4093,-0.141099
1.324,69.4093,-0.141099
1.355,69.4093,-0.141099
1.386,69.4093,-0.135453
1.417,69.4093,-0.135453
1.448,69.4093,-0.135453
1.479,69.4093,-0.135453
1.512,69.4093,-0.135453
1.541,69.4093,-0.135453
1.571,69.4093,-0.135453
1.602,69.4093,-0.135453
1.633,69.4093,-0.131153
1.665,69.4093,-0.131153
1.694,69.4093,-0.131153
1.726,69.4093,-0.131153
1.757,69.4093,-0.131153
1.789,69.4093,-0.131153
1.820,69.4093,-0.131153
1.852,69.4093,-0.131153
1.883,69.4093,-0.127661
1.914,69.4093,-0.127661
1.946,69.4093,-0.127661
1.976,69.4093,-0.127661
2.007,69.4093,-0.127661
2.039,69.4093,-0.127661
2.064,69.4093,-0.127661
2.102,69.4093,-0.127661
2.133,69.4093,-0.124725
2.165,69.4093,-0.124725
2.195,69.4093,-0.124725
2.227,69.4093,-0.124725
2.258,69.4093,-0.124725
2.290,69.4093,-0.124725
2.321,69.4093,-0.124725
2.351,69.4093,-0.124725
2.383,69.4093,-0.122269
2.413,69.4093,-0.122269
2.444,69.4093,-0.122269
2.475,69.4093,-0.122269
2.506,69.4093,-0.122269
2.536,69.4093,-0.122269
2.567,69.4093,-0.122269
2.598,69.4093,-0.122269
2.629,69.4093,-0.120011
2.660,69.4093,-0.120011
2.690,69.4093,-0.120011
2.721,69.4093,-0.120011
2.753,69.4093,-0.120011
2.783,69.4093,-0.120011
2.814,69.4093,-0.120011
2.845,69.4093,-0.120011
2.877,69.4093,-0.120011
2.907,69.4093,-0.118063
2.937,69.4093,-0.118063
2.968,69.4093,-0.118063
2.998,69.4093,-0.118063
3.030,69.4093,-0.118063
3.063,69.4093,-0.118063
3.092,69.4093,-0.118063
3.123,69.4093,-0.118063
3.154,69.4093,-0.116388
3.186,69.4093,-0.116388
3.215,69.4093,-0.116388
3.247,69.4093,-0.116388
3.278,69.4093,-0.116388
3.308,69.4093,-0.116388
3.339,69.4093,-0.116388
3.372,69.4093,-0.114854
3.402,69.4093,-0.114854
3.434,69.4093,-0.114854
3.466,69.4093,-0.114854
3.497,69.4093,-0.114854
3.528,69.4093,-0.114854
3.559,69.4093,-0.114854
3.590,69.4093,-0.114854
3.624,69.4093,-0.113028
3.654,69.4093,-0.113028
3.685,69.4093,-0.113028
3.716,69.4093,-0.113028
3.747,69.4093,-0.113028
3.778,69.4093,-0.113028
3.809,69.4093,-0.113028
3.840,69.4093,-0.113028
3.872,69.4093,-0.113028
3.901,69.4093,-0.113028
3.932,69.4093,-0.110901
3.963,69.4093,-0.110901
3.995,69.4093,-0.110901
4.024,69.4093,-0.110901
4.056,69.4093,-0.110901
4.085,69.4093,-0.110901
4.116,69.4090,-0.110901
4.148,69.4080,-0.108784
4.179,69.4061,-0.108784
4.210,69.4036,-0.108784
4.240,69.4004,-0.108784
4.272,69.3964,-0.108784
4.302,69.3917,-0.108784
4.333,69.3864,-0.108784
4.365,69.3801,-0.108784
4.395,69.3734,-0.108784
4.427,69.3656,-0.047315
4.457,69.3574,-0.047315
4.489,69.3482,-0.047315
4.523,69.3373,-0.047315
4.551,69.3276,-0.047315
4.581,69.3167,-0.047315
4.613,69.3047,0.011452
4.646,69.2907,0.011452
4.675,69.2784,0.011452
4.706,69.2642,0.011452
4.737,69.2490,0.011452
4.768,69.2339,0.011452
4.799,69.2169,0.011452
4.831,69.1999,0.011452
4.862,69.1815,0.011452
4.893,69.1630,0.007048
4.925,69.1431,0.007048
4.956,69.1236,0.007048
4.988,69.1018,0.007048
5.019,69.0806,0.007048
5.048,69.0595,0.007048
5.080,69.0353,0.007048
5.110,69.0131,0.013579
5.140,68.9887,0.013579
5.171,68.9646,0.013579
5.202,68.9383,0.013579
5.233,68.9119,0.013579
5.264,68.8846,0.013579
5.295,68.8572,0.013579
5.327,68.8271,0.013579
5.357,68.7990,0.013579
5.388,68.7678,0.031892
5.419,68.7369,0.031892
5.451,68.7046,0.031892
5.481,68.6731,0.031892
5.513,68.6385,0.031892
5.544,68.6062,0.031892
5.576,68.5688,0.031892
5.605,68.5370,0.031892
5.636,68.5006,0.031892
5.667,68.4647,0.046374
5.697,68.4276,0.046374
5.728,68.3890,0.046374
5.759,68.3502,0.046374
5.790,68.3102,0.046374
5.820,68.2713,0.046374
5.852,68.2293,0.046374
5.882,68.1891,0.054900
5.913,68.1464,0.054900
5.943,68.1046,0.054900
5.973,68.0621,0.054900
6.005,68.0163,0.054900
6.036,67.9713,0.054900
6.066,67.9252,0.054900
6.098,67.8789,0.054900
6.129,67.8310,0.054900
6.160,67.7824,0.060330
6.191,67.7328,0.060330
6.222,67.6836,0.060330
6.253,67.6332,0.060330
6.284,67.5825,0.060330
6.315,67.5296,0.060330
6.346,67.4778,0.060330
6.378,67.4220,0.060330
6.409,67.3682,0.065092
6.440,67.3120,0.065092
6.471,67.2556,0.065092
6.503,67.2004,0.065092
6.533,67.1446,0.065092
6.565,67.0855,0.065092
6.596,67.0266,0.065092
6.627,66.9668,0.069260
6.658,66.9078,0.069260
6.690,66.8450,0.069260
6.720,66.7869,0.069260
6.752,66.7258,0.069260
6.783,66.6684,0.069260
6.813,66.6105,0.069260
6.843,66.5561,0.069260
6.875,66.4996,0.069260
6.905,66.4464,0.074878
6.938,66.3868,0.074878
6.967,66.3348,0.074878
6.999,66.2821,0.074878
7.030,66.2270,0.074878
7.062,66.1749,0.074878
7.093,66.1251,0.074878
7.124,66.0734,0.074878
7.155,66.0251,0.081692
7.186,65.9748,0.081692
7.217,65.9279,0.081692
7.247,65.8812,0.081692
7.279,65.8335,0.081692
7.310,65.7871,0.081692
7.341,65.7428,0.081692
7.372,65.6981,0.081692
7.403,65.6537,0.050938
7.435,65.6091,0.050938
7.466,65.5676,0.050938
7.497,65.5258,0.050938
7.528,65.4852,0.050938
7.559,65.4451,0.050938
7.589,65.4055,0.050938
7.621,65.3674,0.014934
7.651,65.3302,0.014934
7.681,65.2935,0.014934
7.713,65.2568,0.014934
7.743,65.2211,0.014934
7.774,65.1867,0.014934
7.805,65.1516,0.014934
7.836,65.1185,0.014934
7.868,65.0845,0.014934
7.899,65.0525,0.012281
7.929,65.0218,0.012281
7.961,64.9913,0.012281
7.992,64.9603,0.012281
8.023,64.9312,0.012281
8.055,64.9017,0.012281
8.087,64.8742,0.012281
8.117,64.8473,0.012281
8.148,64.8206,0.011612
8.178,64.7967,0.011612
8.210,64.7706,0.011612
8.240,64.7473,0.011612
8.271,64.7236,0.011612
8.303,64.7007,0.011612
8.333,64.6792,0.011612
8.365,64.6570,0.011612
8.397,64.6364,0.011292
8.427,64.6167,0.011292
8.459,64.5979,0.011292
8.489,64.5794,0.011292
8.522,64.5615,0.011292
8.552,64.5451,0.011292
8.582,64.5296,0.011292
8.613,64.5141,0.011292
8.644,64.4996,0.010963
8.674,64.4859,0.010963
8.706,64.4723,0.010963
8.735,64.4606,0.010963
8.768,64.4482,0.010963
8.799,64.4370,0.010963
8.830,64.4266,0.010963
8.862,64.4173,0.010963
8.893,64.4082,0.010709
8.923,64.4004,0.010709
8.955,64.3930,0.010709
8.986,64.3861,0.010709
9.016,64.3804,0.010709
9.048,64.3751,0.010709
9.079,64.3708,0.010709
9.111,64.3669,0.010709
9.141,64.3641,0.010709
9.172,64.3618,0.010568
9.203,64.3602,0.010568
9.235,64.3595,0.010568
9.266,64.3594,0.010568
9.297,64.3594,0.010568
9.328,64.3594,0.010568
9.359,64.3594,0.010568
9.389,64.3594,0.010474
9.421,64.3594,0.010474
9.452,64.3594,0.010474
9.483,64.3594,0.010474
9.515,64.3594,0.010474
9.546,64.3594,0.010474
9.577,64.3594,0.010474
9.608,64.3594,0.010474
9.639,64.3594,0.010474
9.671,64.3594,0.010502
9.702,64.3594,0.010502
9.732,64.3594,0.010502
9.763,64.3594,0.010502
9.793,64.3594,0.010502
9.825,64.3599,0.010502
9.854,64.3610,0.010502
9.884,64.3627,0.010483
9.916,64.3654,0.010483
9.947,64.3688,0.010483
9.979,64.3730,0.010483
10.010,64.3777,0.010483
10.042,64.3835,0.010483
10.073,64.3896,0.010483
10.103,64.3967,0.010483
10.134,64.4041,0.010333
10.165,64.4127,0.010333
10.196,64.4219,0.010333
10.227,64.4318,0.010333
10.258,64.4425,0.010333
10.289,64.4536,0.010333
10.320,64.4655,0.010333
10.351,64.4785,0.010333
10.381,64.4918,0.010107
10.412,64.5065,0.010107
10.444,64.5212,0.010107
10.476,64.5375,0.010107
10.506,64.5532,0.010107
10.536,64.5703,0.010107
10.567,64.5882,0.010107
10.599,64.6073,0.010107
10.629,64.6268,0.009928
10.661,64.6467,0.009928
10.690,64.6666,0.009928
10.722,64.6883,0.009928
10.753,64.7106,0.009928
10.784,64.7342,0.009928
10.816,64.7576,0.009928
10.847,64.7828,0.009928
10.878,64.8080,0.009928
10.909,64.8341,0.009777
10.940,64.8599,0.009777
10.971,64.8879,0.009777
11.002,64.9157,0.009777
11.033,64.9451,0.009777
11.065,64.9746,0.009777
11.096,65.0056,0.009777
11.128,65.0370,0.009467
11.159,65.0696,0.009467
11.189,65.1008,0.009467
11.221,65.1355,0.009467
11.252,65.1689,0.009467
11.285,65.2052,0.009467
11.315,65.2396,0.009467
11.346,65.2759,0.009467
11.377,65.3142,0.009043
11.409,65.3523,0.009043
11.439,65.3888,0.009043
11.470,65.4279,0.009043
11.500,65.4670,0.009043
11.531,65.5067,0.009043
11.562,65.5482,0.009043
11.593,65.5899,0.009043
11.624,65.6331,0.008441
11.655,65.6765,0.008441
11.687,65.7226,0.008441
11.718,65.7668,0.008441
11.749,65.8124,0.008441
11.780,65.8597,0.008441
11.812,65.9075,0.008441
11.843,65.9547,0.008441
11.874,66.0034,0.008441
11.905,66.0528,0.007566
11.936,66.1046,0.007566
11.967,66.1539,0.007566
11.998,66.2053,0.007566
12.030,66.2589,0.007566
12.060,66.3105,0.007566
12.092,66.3658,0.007566
12.123,66.4191,0.006314
12.152,66.4720,0.006314
12.183,66.5285,0.006314
12.215,66.5867,0.006314
12.246,66.6430,0.006314
12.279,66.7058,0.006314
12.308,66.7609,0.006314
12.341,66.8238,0.006314
12.371,66.8820,0.004338
12.407,66.9536,0.004338
12.448,67.0283,0.004338
12.478,67.0860,0.004338
12.510,67.1424,0.004338
12.540,67.1989,0.004338
12.574,67.2605,0.004338
12.601,67.3086,0.004338
12.633,67.3625,0.004338
12.663,67.4162,0.001374
12.694,67.4676,0.001374
12.725,67.5213,0.001374
12.756,67.5709,0.001374
12.787,67.6222,0.001374
12.818,67.6718,0.001374
12.849,67.7200,0.001374
12.879,67.7680,0.001374
12.910,67.8153,-0.003557
12.941,67.8628,-0.003557
12.971,67.9078,-0.003557
13.003,67.9545,-0.003557
13.034,67.9981,-0.003557
13.065,68.0434,-0.003557
13.095,68.0854,-0.003557
13.126,68.1281,-0.003557
13.157,68.1694,-0.012102
13.190,68.2144,-0.012102
13.219,68.2517,-0.012102
13.250,68.2918,-0.012102
13.282,68.3311,-0.012102
13.313,68.3697,-0.012102
13.343,68.4072,-0.012102
13.374,68.4433,-0.012102
13.405,68.4794,-0.026001
13.436,68.5158,-0.026001
13.468,68.5511,-0.026001
13.499,68.5858,-0.026001
13.530,68.6183,-0.026001
13.562,68.6509,-0.026001
13.593,68.6829,-0.026001
13.624,68.7134,-0.046431
13.654,68.7433,-0.046431
13.685,68.7725,-0.046431
13.716,68.8021,-0.046431
13.747,68.8295,-0.046431
13.777,68.8568,-0.046431
13.808,68.8831,-0.046431
13.839,68.9098,-0.046431
13.870,68.9342,-0.073448
13.902,68.9598,-0.073448
13.933,68.9830,-0.073448
13.964,69.0064,-0.073448
13.995,69.0290,-0.073448
14.026,69.0502,-0.073448
14.057,69.0710,-0.073448
14.088,69.0909,-0.073448
14.119,69.1104,-0.073448
14.150,69.1294,-0.108474
14.181,69.1472,-0.108474
14.212,69.1646,-0.108474
14.243,69.1810,-0.108474
14.275,69.1974,-0.108474
14.306,69.2120,-0.108474
14.337,69.2263,-0.108474
14.368,69.2398,-0.170733
14.398,69.2525,-0.170733
14.429,69.2642,-0.170733
14.461,69.2760,-0.170733
14.491,69.2866,-0.170733
14.525,69.2974,-0.170733
14.554,69.3059,-0.170733
14.585,69.3142,-0.170733
14.616,69.3220,-0.170733
14.647,69.3291,-0.274219
14.677,69.3352,-0.274219
14.709,69.3409,-0.274219
14.739,69.3457,-0.274219
14.770,69.3497,-0.274219
14.802,69.3532,-0.274219
14.833,69.3559,-0.274219
14.864,69.3578,-0.374242
14.895,69.3589,-0.374242
14.926,69.3594,-0.374242
14.961,69.3594,-0.374242
14.988,69.3594,-0.374242
15.020,69.3594,-0.374242
15.049,69.3594,-0.374242
15.080,69.3594,-0.374242
15.111,69.3594,-0.329674
15.138,69.3594,-0.329674
15.173,69.3594,-0.329674
15.204,69.3594,-0.329674
15.236,69.3594,-0.329674
15.266,69.3594,-0.329674
15.297,69.3594,-0.329674
15.329,69.3594,-0.329674
15.361,69.3594,-0.211367
15.391,69.3594,-0.211367
15.423,69.3594,-0.211367
15.454,69.3594,-0.211367
15.485,69.3594,-0.211367
15.518,69.3594,-0.211367
15.547,69.3594,-0.211367
15.582,69.3594,-0.211367
15.610,69.3594,-0.211367
15.640,69.3594,-0.167044
15.670,69.3594,-0.167044
15.702,69.3594,-0.167044
15.736,69.3594,-0.167044
15.764,69.3594,-0.167044
15.795,69.3594,-0.167044
15.826,69.3594,-0.167044
15.856,69.3594,-0.167044
15.888,69.3594,-0.152524
15.918,69.3594,-0.152524
15.951,69.3594,-0.152524
15.979,69.3594,-0.152524
16.010,69.3594,-0.152524
16.040,69.3594,-0.152524
16.071,69.3594,-0.152524
16.103,69.3594,-0.152524
16.133,69.3594,-0.143866
16.164,69.3594,-0.143866
16.199,69.3594,-0.143866
16.226,69.3594,-0.143866
16.257,69.3594,-0.143866
16.288,69.3594,-0.143866
16.319,69.3594,-0.143866
16.349,69.3594,-0.143866
16.381,69.3594,-0.137730
16.412,69.3594,-0.137730
16.443,69.3594,-0.137730
16.474,69.3594,-0.137730
16.506,69.3594,-0.137730
16.537,69.3594,-0.137730
16.568,69.3594,-0.137730
16.600,69.3594,-0.137730
16.632,69.3594,-0.133072
16.663,69.3594,-0.133072
16.695,69.3594,-0.133072
16.725,69.3594,-0.133072
16.760,69.3594,-0.133072
16.789,69.3594,-0.133072
16.818,69.3594,-0.133072
16.849,69.3594,-0.133072
16.880,69.3594,-0.129289
16.911,69.3594,-0.129289
16.942,69.3594,-0.129289
16.973,69.3594,-0.129289
17.004,69.3594,-0.129289
17.034,69.3594,-0.129289
17.065,69.3594,-0.129289
17.096,69.3594,-0.129289
17.127,69.3594,-0.126099
17.158,69.3594,-0.126099
17.188,69.3594,-0.126099
17.220,69.3594,-0.126099
17.251,69.3594,-0.126099
17.282,69.3594,-0.126099
17.312,69.3594,-0.126099
17.343,69.3594,-0.126099
17.373,69.3594,-0.123285
17.404,69.3594,-0.123285
17.434,69.3594,-0.123285
17.465,69.3594,-0.123285
17.496,69.3594,-0.123285
17.530,69.3594,-0.123285
17.558,69.3594,-0.123285
17.590,69.3594,-0.123285
17.620,69.3594,-0.120839
17.651,69.3594,-0.120839
17.681,69.3594,-0.120839
17.712,69.3594,-0.120839
17.743,69.3594,-0.120839
17.779,69.3594,-0.120839
17.805,69.3594,-0.120839
17.837,69.3594,-0.120839
17.868,69.3594,-0.118768
17.899,69.3594,-0.118768
17.930,69.3594,-0.118768
17.961,69.3594,-0.118768
17.992,69.3594,-0.118768
18.024,69.3594,-0.118768
18.054,69.3594,-0.118768
18.085,69.3594,-0.118768
18.116,69.3594,-0.117112
18.146,69.3594,-0.117112
18.177,69.3594,-0.117112
18.208,69.3594,-0.117112
18.239,69.3594,-0.117112
18.270,69.3594,-0.117112
18.301,69.3594,-0.117112
18.333,69.3594,-0.117112
18.364,69.3594,-0.117112
18.395,69.3594,-0.115475
18.425,69.3594,-0.115475
18.456,69.3594,-0.115475
18.486,69.3594,-0.115475
18.517,69.3594,-0.115475
18.549,69.3594,-0.115475
18.581,69.3594,-0.115475
18.612,69.3594,-0.113706
18.644,69.3594,-0.113706
18.675,69.3594,-0.113706
18.705,69.3594,-0.113706
18.736,69.3594,-0.113706
18.766,69.3594,-0.113706
18.798,69.3594,-0.113706
18.829,69.3594,-0.113706
18.860,69.3594,-0.113706
18.891,69.3594,-0.113706
18.922,69.3594,-0.111871
18.953,69.3594,-0.111871
18.985,69.3594,-0.111871
19.017,69.3594,-0.111871
19.048,69.3594,-0.111871
19.078,69.3594,-0.111871
19.109,69.3594,-0.111871
19.140,69.3594,-0.109800
19.171,69.3592,-0.109800
19.202,69.3586,-0.109800
19.234,69.3573,-0.109800
19.263,69.3551,-0.109800
19.295,69.3523,-0.109800
19.326,69.3486,-0.109800
19.356,69.3444,-0.109800
19.387,69.3394,-0.099035
19.419,69.3336,-0.099035
19.450,69.3270,-0.099035
19.480,69.3199,-0.099035
19.512,69.3119,-0.099035
19.542,69.3033,-0.099035
19.573,69.2941,-0.099035
19.604,69.2841,-0.099035
19.636,69.2729,-0.099035
19.666,69.2615,-0.015179
19.698,69.2490,-0.015179
19.732,69.2339,-0.015179
19.761,69.2216,-0.015179
19.791,69.2074,-0.015179
19.822,69.1927,-0.015179
19.852,69.1767,-0.015179
19.884,69.1596,-0.015179
19.915,69.1424,0.029699
19.946,69.1241,0.029699
19.977,69.1050,0.029699
20.008,69.0855,0.029699
20.040,69.0647,0.029699
20.071,69.0436,0.029699
20.105,69.0199,0.029699
20.133,68.9992,0.008620
20.164,68.9763,0.008620
20.195,68.9521,0.008620
20.228,68.9249,0.008620
20.256,68.9033,0.008620
20.287,68.8764,0.008620
20.319,68.8494,0.008620
20.350,68.8211,0.008620
20.381,68.7932,0.008620
20.412,68.7638,0.026330
20.442,68.7343,0.026330
20.473,68.7045,0.026330
20.504,68.6736,0.026330
20.535,68.6424,0.026330
20.566,68.6091,0.026330
20.597,68.5759,0.026330
20.628,68.5412,0.042234
20.659,68.5063,0.042234
20.691,68.4697,0.042234
20.722,68.4335,0.042234
20.753,68.3957,0.042234
20.785,68.3576,0.042234
20.815,68.3189,0.042234
20.846,68.2806,0.042234
20.877,68.2413,0.042234
20.908,68.2005,0.051927
20.939,68.1578,0.051927
20.970,68.1158,0.051927
21.001,68.0736,0.051927
21.033,68.0281,0.051927
21.064,67.9851,0.051927
21.095,67.9387,0.051927
21.124,67.8958,0.057620
21.156,67.8476,0.057620
21.186,67.8018,0.057620
21.219,67.7492,0.057620
21.248,67.7059,0.057620
21.279,67.6566,0.057620
21.311,67.6046,0.057620
21.342,67.5535,0.057620
21.373,67.5020,0.062560
21.403,67.4516,0.062560
21.435,67.3976,0.062560
21.466,67.3430,0.062560
21.497,67.2893,0.062560
21.528,67.2334,0.062560
21.558,67.1790,0.062560
21.590,67.1212,0.062560
21.621,67.0634,0.067520
21.653,67.0039,0.067520
21.683,66.9461,0.067520
21.713,66.8873,0.067520
21.745,66.8268,0.067520
21.776,66.7657,0.067520
21.807,66.7074,0.067520
21.837,66.6506,0.067520
21.867,66.5931,0.070823
21.899,66.5344,0.070823
21.929,66.4799,0.070823
21.960,66.4227,0.070823
21.991,66.3700,0.070823
22.023,66.3126,0.070823
22.053,66.2603,0.070823
22.083,66.2090,0.070823
22.114,66.1556,0.070823
22.145,66.1050,0.077767
22.177,66.0543,0.077767
22.208,66.0022,0.077767
22.240,65.9536,0.077767
22.270,65.9043,0.077767
22.301,65.8574,0.077767
22.332,65.8101,0.077767
22.363,65.7640,0.053329
22.399,65.7115,0.053329
22.425,65.6738,0.053329
22.456,65.6294,0.053329
22.487,65.5868,0.053329
22.517,65.5435,0.053329
22.549,65.5010,0.053329
22.580,65.4593,0.053329
22.611,65.4199,0.053329
22.642,65.3796,0.017917
22.672,65.3409,0.017917
22.704,65.3029,0.017917
22.734,65.2649,0.017917
22.765,65.2276,0.017917
22.796,65.1923,0.017917
22.826,65.1581,0.017917
22.858,65.1214,0.017917
22.892,65.0853,0.012582
22.921,65.0539,0.012582
22.953,65.0205,0.012582
22.983,64.9894,0.012582
23.014,64.9584,0.012582
23.045,64.9276,0.012582
23.076,64.8980,0.012582
23.107,64.8696,0.012582
23.138,64.8409,0.012582
23.169,64.8138,0.011772
23.201,64.7866,0.011772
23.235,64.7577,0.011772
23.262,64.7365,0.011772
23.295,64.7096,0.011772
23.323,64.6884,0.011772
23.353,64.6652,0.011772
23.385,64.6428,0.011772
23.416,64.6206,0.011340
23.447,64.6001,0.011340
23.479,64.5793,0.011340
23.510,64.5597,0.011340
23.541,64.5411,0.011340
23.572,64.5231,0.011340
23.603,64.5061,0.011340
23.634,64.4892,0.011104
23.665,64.4736,0.011104
23.697,64.4578,0.011104
23.728,64.4437,0.011104
23.759,64.4298,0.011104
23.789,64.4174,0.011104
23.821,64.4050,0.011104
23.852,64.3936,0.010907
23.883,64.3830,0.010907
23.914,64.3729,0.010907
23.945,64.3637,0.010907
23.975,64.3554,0.010907
24.005,64.3478,0.010907
24.036,64.3408,0.010907
24.067,64.3343,0.010907
24.100,64.3285,0.010907
24.132,64.3234,0.010747
24.163,64.3192,0.010747
24.194,64.3158,0.010747
24.225,64.3131,0.010747
24.255,64.3111,0.010747
24.285,64.3099,0.010747
24.315,64.3094,0.010747
24.347,64.3094,0.010747
24.378,64.3094,0.010530
24.409,64.3094,0.010530
24.440,64.3094,0.010530
24.470,64.3094,0.010530
24.501,64.3099,0.010530
24.532,64.3110,0.010530
24.565,64.3131,0.010530
24.593,64.3155,0.010530
24.624,64.3188,0.010530
24.654,64.3228,0.010493
24.685,64.3276,0.010493
24.716,64.3331,0.010493
24.748,64.3395,0.010493
24.778,64.3462,0.010493
24.809,64.3541,0.010493
24.840,64.3623,0.010493
24.871,64.3718,0.010493
24.902,64.3817,0.010408
24.933,64.3921,0.010408
24.965,64.4039,0.010408
24.996,64.4155,0.010408
25.027,64.4286,0.010408
25.058,64.4422,0.010408
25.089,64.4563,0.010408
25.118,64.4706,0.010408
25.149,64.4859,0.010154
25.180,64.5026,0.010154
25.210,64.5191,0.010154
25.243,64.5377,0.010154
25.273,64.5557,0.010154
25.304,64.5759,0.010154
25.335,64.5951,0.010154
25.366,64.6156,0.010154
25.396,64.6370,0.010154
25.428,64.6597,0.010003
25.459,64.6826,0.010003
25.489,64.7063,0.010003
25.520,64.7296,0.010003
25.551,64.7552,0.010003
25.582,64.7807,0.010003
25.615,64.8093,0.010003
25.644,64.8346,0.009740
25.674,64.8617,0.009740
