Elapsed Time (s),Position (mm),Force (N)
-0.018,64.1000,-0.001208
0.000,64.1000,-0.003625
0.015,64.1000,-0.001208
0.032,64.1000,0.001208
0.047,64.1000,0.001208
0.062,64.1000,0.001208
0.083,64.1000,0.001208
0.094,64.1000,-0.002417
0.111,64.1000,-0.003625
0.127,64.1000,-0.006042
0.142,64.1000,0.002417
0.164,64.1000,-0.002417
0.176,64.1000,-0.002417
0.190,64.1000,-0.003625
0.206,64.1000,-0.002417
0.222,64.1000,-0.007251
0.238,64.1000,-0.004834
0.255,64.1000,-0.006042
0.271,64.1000,-0.002417
0.287,64.1000,0.001208
0.303,64.1000,-0.002417
0.325,64.1000,-0.006042
0.335,64.1000,-0.002417
0.350,64.1000,-0.002417
0.366,64.1000,-0.002417
0.382,64.1000,0.001208
0.399,64.1000,0.004834
0.415,64.1000,0.004834
0.432,64.1000,-0.001208
0.457,64.1000,0.000000
0.472,64.1000,-0.002417
0.488,64.1000,-0.003625
0.504,64.1000,-0.008459
0.520,64.1000,-0.008459
0.536,64.1000,0.002417
0.556,64.1000,-0.001208
0.568,64.1000,0.000000
0.593,64.1000,-0.004834
0.606,64.1000,-0.007251
0.622,64.1000,-0.007251
0.633,64.1000,-0.002417
0.648,64.1000,-0.002417
0.664,64.1000,-0.001208
0.680,64.1000,0.002417
0.696,64.1000,0.002417
0.712,64.1000,-0.001208
0.734,64.1000,-0.001208
0.744,64.1000,0.000000
0.760,64.1000,-0.004834
0.776,64.1000,-0.008459
0.792,64.1000,-0.006042
0.810,64.1000,-0.006042
0.825,64.1000,-0.001208
0.841,64.1000,0.000000
0.856,64.1000,0.001208
0.873,64.1000,0.000000
0.888,64.1000,-0.001208
0.904,64.1000,0.001208
0.920,64.1000,-0.002417
0.938,64.1000,-0.003625
0.952,64.1000,0.002417
0.968,64.1000,-0.001208
0.984,64.1000,-0.003625
1.007,64.1000,0.001208
1.023,64.1000,-0.004834
1.038,64.1000,-0.002417
1.057,64.1000,-0.002417
1.070,64.1000,-0.004834
1.087,64.1000,-0.004834
1.102,64.1000,0.004834
1.118,64.1000,-0.001208
1.134,64.1000,0.006042
1.150,64.1000,0.007251
1.167,64.1000,0.007251
1.182,64.1000,-0.002417
1.198,64.1000,-0.002417
1.222,64.1000,0.003625
1.239,64.1000,0.000000
1.255,64.1000,0.002417
1.270,64.1000,-0.006042
1.284,64.1000,-0.007251
1.294,64.1000,0.001208
1.309,64.1000,-0.006042
1.326,64.1000,-0.006042
1.345,64.1000,-0.004834
1.358,64.1000,-0.004834
1.374,64.1000,0.003625
1.390,64.1000,0.000000
1.406,64.1000,-0.004834
1.423,64.1000,-0.008459
1.438,64.1000,-0.004834
1.454,64.1000,0.000000
1.470,64.1000,0.001208
1.487,64.1000,-0.002417
1.510,64.1000,-0.002417
1.532,64.1000,-0.001208
1.550,64.1000,0.000000
1.565,64.1000,0.002417
1.581,64.1000,0.000000
1.598,64.1000,0.000000
1.613,64.1000,0.000000
1.633,64.1000,0.000000
1.646,64.1000,0.000000
1.663,64.1000,-0.004834
1.678,64.1000,-0.006042
1.694,64.1000,0.001208
1.712,64.1000,0.001208
1.726,64.1000,0.001208
1.742,64.1000,0.000000
1.757,64.1000,0.002417
1.775,64.1000,-0.002417
1.790,64.1000,-0.001208
1.809,64.1000,0.000000
1.821,64.1000,-0.003625
1.837,64.1000,-0.006042
1.853,64.1000,-0.003625
1.870,64.1000,-0.004834
1.885,64.1000,0.000000
1.902,64.1000,0.000000
1.918,64.1000,-0.003625
1.933,64.1000,-0.003625
1.950,64.1000,-0.003625
1.966,64.1000,-0.002417
1.984,64.1000,-0.001208
1.999,64.1000,-0.001208
2.013,64.1000,-0.001208
2.030,64.1000,0.001208
2.045,64.1000,-0.001208
2.061,64.1000,-0.001208
2.077,64.1000,-0.001208
2.093,64.1000,-0.002417
2.109,64.1000,-0.002417
2.126,64.1000,0.001208
2.142,64.1000,-0.006042
2.163,64.1000,-0.002417
2.173,64.1000,-0.003625
2.190,64.1000,-0.003625
2.206,64.1000,0.000000
2.221,64.1000,-0.001208
2.239,64.1000,-0.001208
2.254,64.1000,-0.001208
2.272,64.1000,0.000000
2.285,64.1000,0.001208
2.302,64.1000,-0.001208
2.317,64.1000,-0.007251
2.334,64.1000,-0.004834
2.349,64.1000,-0.001208
2.366,64.1000,-0.004834
2.381,64.1000,-0.003625
2.397,64.1000,0.000000
2.417,64.1000,0.000000
2.430,64.1000,0.001208
2.445,64.1000,0.001208
2.461,64.1000,-0.002417
2.478,64.1000,-0.004834
2.494,64.1000,-0.002417
2.517,64.1000,-0.002417
2.536,64.1000,-0.006042
2.552,64.1000,-0.006042
2.567,64.1000,0.007251
2.580,64.1000,0.001208
2.604,64.1000,-0.006042
2.623,64.1000,-0.003625
2.636,64.1000,0.002417
2.651,64.1000,-0.002417
2.667,64.1000,-0.001208
2.683,64.1000,0.002417
2.699,64.1000,0.002417
2.715,64.1000,-0.006042
2.732,64.1000,-0.002417
2.748,64.1000,-0.002417
2.770,64.1000,0.002417
2.783,64.1000,-0.002417
2.796,64.1000,0.000000
2.812,64.1000,0.002417
2.827,64.1000,0.002417
2.843,64.1000,-0.003625
2.859,64.1000,0.001208
2.875,64.1000,-0.006042
2.891,64.1000,-0.006042
2.910,64.1000,-0.003625
2.923,64.1000,0.001208
2.939,64.1000,0.000000
2.955,64.1000,-0.003625
2.972,64.1000,-0.002417
2.987,64.1000,-0.002417
3.011,64.1000,-0.003625
3.030,64.1000,-0.002417
3.044,64.1000,0.004834
3.067,64.1000,-0.008459
3.084,64.1000,-0.002417
3.099,64.1000,0.000000
3.120,64.1000,0.003625
3.144,64.1000,-0.004834
3.160,64.1000,-0.003625
3.176,64.1000,-0.004834
3.192,64.1000,0.001208
3.209,64.1000,0.001208
3.225,64.1000,0.000000
3.243,64.1000,0.001208
3.256,64.1000,0.000000
3.272,64.1000,-0.003625
3.288,64.1000,-0.001208
3.304,64.1000,0.001208
3.320,64.1000,0.000000
3.340,64.1000,0.007251
3.352,64.1000,0.007251
3.368,64.1000,-0.006042
3.384,64.1000,-0.001208
3.400,64.1000,-0.001208
3.416,64.1000,-0.001208
3.432,64.1000,0.000000
3.449,64.1000,-0.006042
3.464,64.1000,-0.006042
3.483,64.1000,-0.002417
3.495,64.1000,-0.002417
3.513,64.1000,-0.006042
3.535,64.1000,-0.006042
3.553,64.1000,0.003625
3.569,64.1000,-0.001208
3.584,64.1000,-0.001208
3.597,64.1000,-0.004834
3.608,64.1000,-0.001208
3.626,64.1000,-0.002417
3.640,64.1000,-0.004834
3.659,64.1000,0.003625
3.683,64.1000,-0.001208
3.700,64.1000,0.000000
3.715,64.1000,-0.003625
3.731,64.1000,-0.007251
3.747,64.1000,-0.006042
3.763,64.1000,-0.006042
3.781,64.1000,-0.006042
3.795,64.1000,-0.001208
3.811,64.1000,-0.001208
3.826,64.1000,-0.001208
3.842,64.1000,-0.004834
3.859,64.1000,-0.003625
3.876,64.1000,-0.007251
3.891,64.1000,-0.002417
3.906,64.1000,0.001208
3.924,64.1000,-0.002417
3.938,64.1000,-0.002417
3.954,64.1000,0.002417
3.970,64.1000,0.001208
3.988,64.1000,-0.001208
4.004,64.1000,-0.003625
4.018,64.1000,0.002417
4.035,64.1000,0.001208
4.051,64.1000,0.001208
4.073,64.1000,-0.006042
4.089,64.1000,-0.002417
4.099,64.1000,-0.006042
4.114,64.1000,-0.001208
4.134,64.1000,-0.002417
4.146,64.1000,0.002417
4.162,64.1000,-0.002417
4.178,64.1000,-0.002417
4.194,64.1000,-0.003625
4.218,64.1000,-0.002417
4.234,64.1000,-0.010876
4.250,64.1000,0.001208
4.266,64.1000,0.003625
4.283,64.1000,-0.004834
4.298,64.1000,-0.006042
4.320,64.1000,0.002417
4.330,64.1000,-0.003625
4.347,64.1000,-0.003625
4.363,64.1000,-0.003625
4.380,64.1000,-0.003625
4.394,64.1000,0.001208
4.411,64.1000,-0.004834
4.427,64.1000,-0.009668
4.442,64.1000,-0.002417
4.461,64.1000,-0.002417
4.475,64.1000,0.002417
4.490,64.1000,0.001208
4.506,64.1000,0.001208
4.530,64.1000,0.001208
4.554,64.1000,0.000000
4.571,64.1000,0.001208
4.587,64.1000,0.002417
4.602,64.1000,-0.001208
4.618,64.1000,-0.002417
4.634,64.1000,-0.003625
4.651,64.1000,-0.001208
4.667,64.1000,-0.002417
4.683,64.1000,-0.003625
4.699,64.1000,0.003625
4.714,64.1000,0.002417
4.735,64.1000,-0.001208
4.759,64.1000,-0.003625
4.776,64.1000,-0.006042
4.791,64.1000,-0.004834
4.807,64.1000,-0.004834
4.824,64.1000,0.001208
4.839,64.1000,-0.003625
4.858,64.1000,-0.007251
4.871,64.1000,0.000000
4.887,64.1000,0.001208
4.903,64.1000,-0.006042
4.919,64.1000,-0.006042
4.935,64.1000,0.000000
4.951,64.1000,-0.002417
4.967,64.1000,-0.002417
4.983,64.1000,-0.003625
4.999,64.1000,-0.003625
5.015,64.1000,0.001208
5.033,64.1000,0.002417
5.047,64.1000,0.002417
5.063,64.1000,0.001208
5.079,64.1000,-0.004834
5.095,64.1000,-0.007251
5.112,64.1000,0.002417
5.128,64.1000,0.000000
5.150,64.1000,0.001208
5.166,64.1000,0.002417
5.182,64.1000,-0.007251
5.197,64.1000,-0.002417
5.210,64.1000,-0.002417
5.222,64.1000,0.001208
5.239,64.1000,0.000000
5.255,64.1000,0.000000
5.271,64.1000,-0.001208
5.294,64.1000,-0.001208
5.309,64.1000,-0.001208
5.326,64.1000,-0.001208
5.341,64.1000,-0.001208
5.357,64.1000,0.000000
5.373,64.1000,0.000000
5.391,64.1000,0.000000
5.407,64.1000,-0.004834
5.422,64.1000,0.000000
5.443,64.1000,0.000000
5.453,64.1000,-0.006042
5.469,64.1000,-0.006042
5.485,64.1000,-0.001208
5.501,64.1000,-0.002417
5.517,64.1000,-0.002417
5.533,64.1000,-0.008459
5.550,64.1000,-0.004834
5.565,64.1000,-0.001208
5.581,64.1000,-0.003625
5.597,64.1000,0.001208
5.613,64.1000,-0.007251
5.629,64.1000,-0.004834
5.645,64.1000,0.000000
5.661,64.1000,0.001208
5.677,64.1000,-0.002417
5.693,64.1000,-0.001208
5.711,64.1000,-0.001208
5.725,64.1000,0.000000
5.741,64.1000,-0.007251
5.757,64.1000,-0.002417
5.773,64.1000,0.002417
5.789,64.1000,0.000000
5.811,64.1000,0.003625
5.835,64.1000,0.003625
5.851,64.1000,-0.007251
5.867,64.1000,-0.007251
5.882,64.1000,0.002417
5.898,64.1000,0.002417
5.915,64.1000,0.004834
5.935,64.1000,0.006042
5.947,64.1000,0.006042
5.963,64.1000,-0.004834
5.979,64.1000,-0.008459
5.995,64.1000,0.000000
6.011,64.1000,-0.003625
6.027,64.1000,0.001208
6.049,64.1000,0.002417
6.061,64.1000,-0.006042
6.075,64.1000,0.000000
6.090,64.1000,-0.006042
6.106,64.1000,-0.006042
6.126,64.1000,-0.003625
6.139,64.1000,0.001208
6.154,64.1000,-0.003625
6.170,64.1000,-0.001208
6.186,64.1000,-0.001208
6.203,64.1000,-0.002417
6.218,64.1000,-0.001208
6.235,64.1000,0.001208
6.250,64.1000,-0.001208
6.266,64.1000,0.001208
6.290,64.1000,0.001208
6.309,64.1000,-0.004834
6.330,64.1000,0.000000
6.350,64.1000,0.000000
6.374,64.1000,0.003625
6.390,64.1000,-0.004834
6.406,64.1000,0.001208
6.422,64.1000,-0.002417
6.438,64.1000,-0.002417
6.454,64.1000,-0.001208
6.470,64.1000,0.000000
6.487,64.1000,0.000000
6.503,64.1000,0.002417
6.521,64.1000,-0.001208
6.534,64.1000,-0.003625
6.550,64.1000,-0.003625
6.567,64.1000,-0.003625
6.583,64.1000,-0.001208
6.600,64.1000,-0.001208
6.615,64.1000,-0.002417
6.634,64.1000,-0.003625
6.647,64.1000,-0.003625
6.662,64.1000,0.000000
6.678,64.1000,0.002417
6.694,64.1000,0.001208
6.711,64.1000,0.000000
6.727,64.1000,0.001208
6.742,64.1000,0.002417
6.758,64.1000,-0.002417
6.774,64.1000,-0.006042
6.790,64.1000,-0.003625
6.806,64.1000,-0.004834
6.822,64.1000,-0.010876
6.839,64.1000,0.000000
6.854,64.1000,-0.001208
6.870,64.1000,0.000000
6.902,64.1000,0.000000
6.917,64.1000,0.001208
6.933,64.1000,0.001208
6.948,64.1000,0.001208
6.965,64.1000,-0.001208
6.980,64.1000,-0.003625
7.001,64.1000,-0.003625
7.012,64.1000,0.001208
7.028,64.1000,0.001208
7.044,64.1000,-0.008459
7.062,64.1000,-0.004834
7.077,64.1000,-0.004834
7.092,64.1000,-0.004834
7.108,64.1000,-0.008459
7.124,64.1000,-0.003625
7.140,64.1000,-0.002417
7.156,64.1000,-0.001208
7.172,64.1000,0.003625
7.190,64.1000,0.000000
7.204,64.1000,-0.002417
7.220,64.1000,0.000000
7.236,64.1000,0.000000
7.252,64.1000,-0.001208
7.268,64.1000,-0.004834
7.284,64.1000,0.001208
7.300,64.1000,0.001208
7.316,64.1000,-0.008459
7.339,64.1000,-0.001208
7.357,64.1000,0.000000
7.372,64.1000,0.000000
7.387,64.1000,0.002417
7.403,64.1000,-0.003625
7.417,64.1000,-0.006042
7.441,64.1000,-0.001208
7.457,64.1000,0.001208
7.473,64.1000,0.002417
7.489,64.1000,0.000000
7.505,64.1000,-0.003625
7.521,64.1000,-0.006042
7.538,64.1000,-0.003625
7.553,64.1000,0.006042
7.570,64.1000,0.001208
7.585,64.1000,0.007251
7.601,64.1000,-0.001208
7.618,64.1000,-0.003625
7.633,64.1000,-0.003625
7.650,64.1000,-0.002417
7.669,64.1000,-0.002417
7.681,64.1000,0.006042
7.697,64.1000,0.003625
7.713,64.1000,0.001208
7.732,64.1000,0.000000
7.747,64.1000,0.003625
7.761,64.1000,0.000000
7.781,64.1000,-0.007251
7.793,64.1000,0.000000
7.809,64.1000,0.001208
7.828,64.1000,-0.001208
7.841,64.1000,0.004834
7.858,64.1000,0.000000
7.873,64.1000,0.001208
7.892,64.1000,0.001208
7.905,64.1000,-0.008459
7.921,64.1000,0.001208
7.937,64.1000,-0.003625
7.953,64.1000,-0.007251
7.976,64.1000,-0.004834
7.992,64.1000,-0.007251
8.008,64.1000,-0.001208
8.024,64.1000,-0.004834
8.040,64.1000,-0.002417
8.056,64.1000,-0.002417
8.077,64.1000,-0.001208
8.088,64.1000,-0.004834
8.104,64.1000,-0.001208
8.120,64.1000,0.002417
8.139,64.1000,0.002417
8.152,64.1000,-0.003625
8.168,64.1000,-0.002417
8.184,64.1000,-0.004834
8.200,64.1000,-0.010876
8.215,64.1000,-0.001208
8.232,64.1000,-0.001208
8.248,64.1000,0.000000
8.263,64.1000,-0.003625
8.280,64.1000,-0.004834
8.296,64.1000,-0.008459
8.312,64.1000,-0.006042
8.328,64.1000,-0.001208
8.344,64.1000,-0.001208
8.360,64.1000,-0.001208
8.384,64.1000,0.001208
8.404,64.1000,-0.004834
8.424,64.1000,-0.001208
8.446,64.1000,-0.002417
8.456,64.1000,-0.004834
8.472,64.1000,0.007251
8.487,64.1000,0.007251
8.507,64.1000,-0.003625
8.530,64.1000,-0.002417
8.547,64.1000,-0.002417
8.563,64.1000,-0.007251
8.578,64.1000,-0.003625
8.594,64.1000,0.001208
8.610,64.1000,-0.003625
8.626,64.1000,-0.004834
8.646,64.1000,-0.003625
8.659,64.1000,-0.003625
8.675,64.1000,0.001208
8.691,64.1000,0.000000
8.707,64.1000,0.000000
8.722,64.1000,-0.007251
8.738,64.1000,-0.004834
8.754,64.1000,-0.004834
8.771,64.1000,0.003625
8.786,64.1000,0.000000
8.803,64.1000,0.003625
8.819,64.1000,0.001208
8.834,64.1000,-0.004834
8.850,64.1000,-0.012084
8.867,64.1000,-0.008459
8.883,64.1000,-0.008459
8.900,64.1000,0.002417
8.915,64.1000,-0.002417
8.931,64.1000,-0.002417
8.954,64.1000,-0.002417
8.974,64.1000,0.003625
8.994,64.1000,0.002417
9.011,64.1000,-0.007251
9.027,64.1000,-0.006042
9.043,64.1000,-0.002417
9.058,64.1000,-0.006042
9.074,64.1000,-0.003625
9.096,64.1000,0.000000
9.112,64.1000,-0.006042
9.127,64.1000,-0.004834
9.143,64.1000,0.001208
9.160,64.1000,0.001208
9.175,64.1000,-0.002417
9.191,64.1000,-0.007251
9.207,64.1000,-0.007251
9.225,64.1000,-0.003625
9.239,64.1000,-0.003625
9.262,64.1000,-0.006042
9.279,64.1000,-0.002417
9.294,64.1000,-0.002417
9.310,64.1000,-0.002417
9.323,64.1000,0.000000
9.335,64.1000,-0.001208
9.352,64.1000,-0.001208
9.367,64.1000,-0.001208
9.383,64.1000,-0.007251
9.399,64.1000,-0.006042
9.415,64.1000,-0.002417
9.431,64.1000,-0.001208
9.447,64.1000,-0.001208
9.463,64.1000,0.002417
9.480,64.1000,0.000000
9.496,64.1000,0.000000
9.511,64.1000,-0.004834
9.529,64.1000,-0.008459
9.543,64.1000,-0.001208
9.559,64.1000,-0.002417
9.575,64.1000,-0.001208
9.591,64.1000,0.000000
9.607,64.1000,0.000000
9.630,64.1000,-0.004834
9.654,64.1000,-0.003625
9.670,64.1000,-0.003625
9.686,64.1000,0.000000
9.702,64.1000,0.002417
9.718,64.1000,0.002417
9.734,64.1000,0.002417
9.750,64.1000,-0.002417
9.767,64.1000,-0.002417
9.782,64.1000,0.004834
9.803,64.1000,0.002417
9.814,64.1000,-0.001208
9.830,64.1000,-0.002417
9.846,64.1000,-0.003625
9.866,64.1000,-0.002417
9.878,64.1000,-0.002417
9.894,64.1000,0.002417
9.917,64.1000,-0.001208
9.930,64.1000,0.000000
9.942,64.1000,-0.003625
9.958,64.1000,0.000000
9.974,64.1000,0.000000
9.990,64.1000,-0.004834
10.007,64.1000,-0.001208
10.022,64.1000,0.000000
10.038,64.1000,-0.003625
10.054,64.1000,-0.001208
10.070,64.1000,-0.001208
10.086,64.1000,-0.004834
10.102,64.1000,-0.004834
10.118,64.1000,-0.002417
10.134,64.1000,0.000000
10.150,64.1000,0.001208
10.166,64.1000,0.000000
10.182,64.1000,0.000000
10.198,64.1000,-0.002417
10.215,64.1000,-0.002417
10.230,64.1000,-0.004834
10.246,64.1000,-0.006042
10.262,64.1000,-0.003625
10.278,64.1000,-0.003625
10.294,64.1000,-0.001208
10.310,64.1000,-0.001208
10.327,64.1000,-0.002417
10.342,64.1000,-0.003625
10.358,64.1000,-0.001208
10.374,64.1000,-0.001208
10.390,64.1000,-0.006042
10.406,64.1000,0.001208
10.422,64.1000,-0.003625
10.438,64.1000,-0.006042
10.455,64.1000,-0.004834
10.470,64.1000,-0.001208
10.487,64.1000,-0.001208
10.502,64.1000,-0.004834
10.525,64.1000,0.000000
10.537,64.1000,0.000000
10.551,64.1000,0.001208
10.565,64.1000,-0.001208
10.582,64.1000,-0.004834
10.598,64.1000,-0.004834
10.613,64.1000,-0.002417
10.630,64.1000,-0.001208
10.646,64.1000,-0.001208
10.662,64.1000,0.002417
10.683,64.1000,-0.006042
10.708,64.1000,-0.001208
10.724,64.1000,-0.004834
10.739,64.1000,-0.001208
10.755,64.1000,0.002417
10.771,64.1000,0.000000
10.787,64.1000,0.000000
10.807,64.1000,0.002417
10.819,64.1000,0.002417
10.835,64.1000,-0.001208
10.852,64.1000,-0.002417
10.867,64.1000,-0.002417
10.884,64.1000,-0.001208
10.900,64.1000,-0.003625
10.916,64.1000,0.003625
10.932,64.1000,0.003625
10.947,64.1000,0.001208
10.964,64.1000,0.001208
10.980,64.1000,0.004834
10.995,64.1000,-0.002417
11.012,64.1000,-0.001208
11.028,64.1000,0.000000
11.050,64.1000,0.000000
11.075,64.1000,-0.010876
11.092,64.1000,0.002417
11.106,64.1000,0.002417
11.124,64.0863,-0.001208
11.139,64.0620,0.021752
11.156,64.0364,-0.002417
11.172,64.0110,0.004834
11.188,63.9864,0.003625
11.211,63.9488,0.003625
11.229,63.9213,-0.003625
11.245,63.8964,-0.002417
11.261,63.8713,0.000000
11.281,63.8392,-0.003625
11.303,63.8055,-0.003625
11.315,63.7860,-0.003625
11.331,63.7611,-0.001208
11.347,63.7364,-0.001208
11.364,63.7105,-0.001208
11.380,63.6857,0.001208
11.395,63.6612,-0.007251
11.411,63.6357,-0.007251
11.427,63.6112,-0.002417
11.443,63.5857,0.002417
11.459,63.5594,-0.004834
11.480,63.5272,-0.002417
11.492,63.5087,-0.002417
11.508,63.4850,-0.007251
11.523,63.4606,-0.004834
11.539,63.4355,-0.007251
11.555,63.4098,-0.002417
11.571,63.3852,0.004834
11.588,63.3594,0.006042
11.603,63.3342,0.004834
11.620,63.3079,-0.002417
11.635,63.2849,0.004834
11.652,63.2588,0.004834
11.668,63.2338,0.004834
11.684,63.2080,0.002417
11.700,63.1829,-0.002417
11.716,63.1584,0.003625
11.735,63.1274,-0.001208
11.759,63.0906,0.002417
11.775,63.0641,0.003625
11.791,63.0401,-0.001208
11.807,63.0154,0.007251
11.825,62.9862,0.002417
11.839,62.9642,-0.001208
11.855,62.9382,0.000000
11.876,62.9061,-0.008459
11.888,62.8878,-0.002417
11.903,62.8650,0.001208
11.921,62.8350,0.002417
11.935,62.8135,0.007251
11.955,62.7826,0.003625
11.967,62.7642,0.003625
11.983,62.7397,0.001208
11.999,62.7147,0.000000
12.015,62.6894,-0.003625
12.031,62.6645,0.001208
12.047,62.6395,0.000000
12.065,62.6117,-0.001208
12.079,62.5878,0.003625
12.099,62.5569,0.000000
12.113,62.5348,0.000000
12.127,62.5136,0.000000
12.143,62.4888,0.003625
12.159,62.4639,0.000000
12.177,62.4355,-0.004834
12.191,62.4138,0.000000
12.207,62.3887,-0.001208
12.223,62.3636,0.004834
12.239,62.3365,0.004834
12.255,62.3137,0.008459
12.276,62.2805,-0.002417
12.299,62.2434,0.001208
12.315,62.2175,0.001208
12.331,62.1938,-0.003625
12.347,62.1692,0.006042
12.364,62.1416,0.004834
12.379,62.1192,0.004834
12.398,62.0885,-0.006042
12.411,62.0677,-0.007251
12.427,62.0428,0.001208
12.443,62.0185,0.001208
12.459,61.9919,0.002417
12.483,61.9558,0.001208
12.494,61.9392,-0.003625
12.507,61.9176,-0.001208
12.525,61.8896,-0.006042
12.539,61.8674,0.002417
12.556,61.8408,0.001208
12.579,61.8048,0.002417
12.600,61.7717,0.003625
12.619,61.7420,0.009668
12.635,61.7180,0.001208
12.651,61.6912,-0.001208
12.668,61.6663,0.003625
12.690,61.6290,0.003625
12.708,61.6031,-0.006042
12.722,61.5805,-0.006042
12.737,61.5567,-0.003625
12.750,61.5351,-0.003625
12.762,61.5175,0.004834
12.779,61.4913,0.001208
12.795,61.4665,0.000000
12.810,61.4421,-0.003625
12.834,61.4060,-0.004834
12.849,61.3809,-0.003625
12.866,61.3554,-0.004834
12.882,61.3307,-0.001208
12.898,61.3048,-0.001208
12.914,61.2792,0.006042
12.936,61.2451,0.003625
12.957,61.2105,0.002417
12.977,61.1801,0.002417
13.002,61.1419,0.006042
13.015,61.1200,0.000000
13.026,61.1034,-0.001208
13.042,61.0796,-0.001208
13.058,61.0528,-0.001208
13.074,61.0282,0.002417
13.090,61.0045,0.001208
13.106,60.9787,-0.001208
13.121,60.9548,0.004834
13.140,60.9232,0.004834
13.153,60.9044,-0.001208
13.170,60.8788,-0.001208
13.185,60.8545,0.002417
13.202,60.8279,0.001208
13.218,60.8032,0.000000
13.239,60.7700,0.000000
13.249,60.7540,0.006042
13.266,60.7276,0.008459
13.281,60.7036,0.008459
13.298,60.6767,-0.002417
13.313,60.6533,0.000000
13.329,60.6284,0.002417
13.350,60.5939,0.000000
13.374,60.5593,0.003625
13.390,60.5342,0.000000
13.405,60.5094,0.000000
13.421,60.4845,0.000000
13.438,60.4578,0.000000
13.453,60.4340,0.000000
13.475,60.4002,0.006042
13.485,60.3837,0.001208
13.502,60.3574,-0.004834
13.517,60.3338,0.000000
13.535,60.3049,-0.004834
13.549,60.2839,-0.001208
13.565,60.2578,-0.001208
13.581,60.2337,-0.002417
13.597,60.2088,-0.002417
13.614,60.1830,0.001208
13.630,60.1577,-0.003625
13.651,60.1248,-0.001208
13.663,60.1060,0.008459
13.678,60.0829,0.009668
13.695,60.0552,0.000000
13.709,60.0333,-0.002417
13.731,59.9977,-0.001208
