Elapsed Time (s),Position (mm),Force (N)
-0.016,57.4500,0.001628
0.000,57.4500,0.001628
0.016,57.4500,0.001628
0.032,57.4500,0.001628
0.048,57.4500,0.001789
0.064,57.4500,0.001789
0.081,57.4500,0.001789
0.101,57.4500,0.001789
0.117,57.4500,0.001789
0.148,57.4500,0.001789
0.179,57.4500,0.001789
0.209,57.4500,0.001789
0.225,57.4500,0.001789
0.240,57.4500,0.001789
0.263,57.4500,0.001789
0.287,57.4500,0.001789
0.304,57.4500,0.001826
0.321,57.4500,0.001826
0.350,57.4500,0.001826
0.367,57.4500,0.001826
0.385,57.4500,0.001826
0.412,57.4500,0.001826
0.432,57.4500,0.001826
0.455,57.4500,0.001826
0.474,57.4500,0.001826
0.504,57.4500,0.001826
0.536,57.4500,0.001807
0.566,57.4500,0.001807
0.598,57.4500,0.001807
0.629,57.4500,0.001807
0.659,57.4500,0.001807
0.690,57.4500,0.001807
0.706,57.4500,0.001807
0.736,57.4500,0.001807
0.753,57.4500,0.001807
0.768,57.4500,0.001826
0.783,57.4500,0.001826
0.800,57.4500,0.001826
0.816,57.4500,0.001826
0.831,57.4500,0.001826
0.847,57.4500,0.001826
0.864,57.4500,0.001826
0.880,57.4500,0.001826
0.896,57.4500,0.001826
0.911,57.4500,0.001826
0.927,57.4500,0.001826
0.943,57.4500,0.001826
0.959,57.4500,0.001826
0.987,57.4500,0.001826
1.004,57.4500,0.001826
1.019,57.4500,0.001817
1.035,57.4500,0.001817
1.052,57.4500,0.001817
1.068,57.4500,0.001817
1.083,57.4500,0.001817
1.099,57.4500,0.001817
1.115,57.4500,0.001817
1.132,57.4500,0.001817
1.147,57.4500,0.001817
1.163,57.4500,0.001817
1.181,57.4500,0.001817
1.201,57.4500,0.001817
1.232,57.4500,0.001817
1.262,57.4500,0.001817
1.294,57.4500,0.001817
1.310,57.4500,0.001817
1.325,57.4500,0.001817
1.341,57.4500,0.001817
1.357,57.4500,0.001817
1.387,57.4500,0.001817
1.403,57.4500,0.001817
1.422,57.4500,0.001817
1.448,57.4500,0.001817
1.467,57.4500,0.001817
1.483,57.4500,0.001817
1.499,57.4500,0.001817
1.515,57.4500,0.001817
1.539,57.4500,0.001826
1.555,57.4500,0.001826
1.571,57.4500,0.001826
1.587,57.4500,0.001826
1.603,57.4500,0.001826
1.619,57.4500,0.001826
1.635,57.4500,0.001826
1.651,57.4500,0.001826
1.672,57.4500,0.001826
1.696,57.4500,0.001826
1.715,57.4500,0.001826
1.731,57.4500,0.001826
1.747,57.4500,0.001826
1.763,57.4500,0.001836
1.779,57.4500,0.001836
1.795,57.4500,0.001836
1.811,57.4500,0.001836
1.827,57.4500,0.001836
1.843,57.4500,0.001836
1.859,57.4500,0.001836
1.875,57.4500,0.001836
1.891,57.4500,0.001836
1.907,57.4500,0.001836
1.923,57.4500,0.001836
1.939,57.4500,0.001836
1.955,57.4500,0.001836
1.971,57.4500,0.001836
1.987,57.4500,0.001836
2.003,57.4500,0.001826
2.019,57.4500,0.001826
2.035,57.4500,0.001826
2.051,57.4500,0.001826
2.067,57.4500,0.001826
2.095,57.4500,0.001826
2.111,57.4500,0.001826
2.127,57.4500,0.001826
2.151,57.4500,0.001826
2.175,57.4500,0.001826
2.191,57.4500,0.001826
2.207,57.4500,0.001826
2.223,57.4500,0.001826
2.239,57.4500,0.001826
2.255,57.4500,0.001845
2.271,57.4500,0.001845
2.288,57.4500,0.001845
2.315,57.4500,0.001845
2.335,57.4500,0.001845
2.351,57.4500,0.001845
2.367,57.4500,0.001845
2.383,57.4500,0.001845
2.399,57.4500,0.001845
2.415,57.4500,0.001845
2.431,57.4500,0.001845
2.447,57.4500,0.001845
2.463,57.4500,0.001845
2.479,57.4500,0.001845
2.495,57.4500,0.001845
2.511,57.4500,0.001836
2.527,57.4500,0.001836
2.543,57.4500,0.001836
2.559,57.4500,0.001836
2.575,57.4500,0.001836
2.591,57.4500,0.001836
2.616,57.4500,0.001836
2.632,57.4500,0.001836
2.647,57.4500,0.001836
2.664,57.4500,0.001836
2.680,57.4500,0.001836
2.696,57.4500,0.001836
2.712,57.4500,0.001836
2.727,57.4500,0.001836
2.743,57.4500,0.001836
2.760,57.4500,0.001836
2.776,57.4500,0.001836
2.792,57.4500,0.001836
2.807,57.4500,0.001836
2.823,57.4500,0.001836
2.839,57.4500,0.001836
2.856,57.4500,0.001836
2.871,57.4500,0.001836
2.888,57.4500,0.001836
2.903,57.4500,0.001836
2.920,57.4500,0.001836
2.935,57.4500,0.001836
2.951,57.4500,0.001836
2.967,57.4500,0.001836
2.983,57.4500,0.001836
3.000,57.4500,0.001836
3.015,57.4500,0.001864
3.031,57.4500,0.001864
3.049,57.4500,0.001864
3.075,57.4500,0.001864
3.096,57.4500,0.001864
3.112,57.4500,0.001864
3.144,57.4500,0.001864
3.163,57.4500,0.001864
3.183,57.4500,0.001864
3.216,57.4500,0.001864
3.246,57.4500,0.001864
3.277,57.4500,0.001864
3.308,57.4500,0.001854
3.338,57.4500,0.001854
3.354,57.4500,0.001854
3.385,57.4500,0.001854
3.406,57.4500,0.001854
3.431,57.4500,0.001854
3.448,57.4500,0.001854
3.477,57.4500,0.001854
3.494,57.4500,0.001854
3.516,57.4500,0.001854
3.538,57.4500,0.001826
3.559,57.4500,0.001826
3.575,57.4500,0.001826
3.599,57.4500,0.001826
3.614,57.4500,0.001826
3.630,57.4500,0.001826
3.645,57.4500,0.001826
3.676,57.4500,0.001826
3.699,57.4500,0.001826
3.722,57.4500,0.001826
3.738,57.4500,0.001826
3.753,57.4500,0.001826
3.769,57.4500,0.001826
3.800,57.4500,0.001713
3.831,57.4500,0.001713
3.861,57.4500,0.001713
3.892,57.4500,0.001713
3.923,57.4500,0.001713
3.939,57.4500,0.001713
3.954,57.4500,0.001713
3.985,57.4500,0.001713
4.004,57.4500,0.001713
4.033,57.4500,0.001610
4.049,57.4500,0.001610
4.066,57.4499,0.001610
4.082,57.4496,0.001610
4.097,57.4491,0.001610
4.113,57.4484,0.001610
4.130,57.4475,0.001610
4.145,57.4464,0.001610
4.162,57.4452,0.001610
4.177,57.4437,0.001610
4.194,57.4421,0.001610
4.209,57.4402,0.001610
4.226,57.4380,0.001610
4.250,57.4345,0.001610
4.267,57.4320,0.001610
4.282,57.4292,0.001741
4.298,57.4263,0.001741
4.322,57.4215,0.001741
4.345,57.4168,0.001741
4.362,57.4127,0.001741
4.378,57.4088,0.001741
4.394,57.4047,0.001741
4.411,57.4002,0.001741
4.426,57.3961,0.001741
4.443,57.3912,0.001741
4.458,57.3865,0.001741
4.475,57.3813,0.001741
4.490,57.3761,0.001741
4.507,57.3705,0.001741
4.522,57.3648,0.001741
4.538,57.3591,0.004311
4.554,57.3530,0.004311
4.572,57.3463,0.004311
4.593,57.3374,0.004311
4.624,57.3240,0.004311
4.655,57.3107,0.004311
4.671,57.3032,0.004311
4.703,57.2879,0.004311
4.718,57.2800,0.004311
4.749,57.2639,0.004311
4.765,57.2558,0.004311
4.795,57.2388,0.006985
4.826,57.2207,0.006985
4.842,57.2115,0.006985
4.859,57.2013,0.006985
4.875,57.1911,0.006985
4.904,57.1724,0.006985
4.923,57.1604,0.006985
4.938,57.1502,0.006985
4.954,57.1397,0.006985
4.970,57.1278,0.006985
4.986,57.1174,0.006985
5.003,57.1050,0.006985
5.018,57.0938,0.006985
5.034,57.0824,0.004678
5.050,57.0700,0.004678
5.066,57.0577,0.004678
5.082,57.0456,0.004678
5.098,57.0330,0.004678
5.115,57.0195,0.004678
5.130,57.0066,0.004678
5.146,56.9935,0.004678
5.162,56.9808,0.004678
5.179,56.9659,0.004678
5.200,56.9472,0.004678
5.230,56.9213,0.004678
5.259,56.8951,0.004678
5.276,56.8794,0.004678
5.291,56.8652,0.004678
5.321,56.8371,0.002165
5.337,56.8213,0.002165
5.353,56.8060,0.002165
5.369,56.7890,0.002165
5.387,56.7711,0.002165
5.405,56.7529,0.002165
5.429,56.7288,0.002165
5.449,56.7069,0.002165
5.465,56.6896,0.002165
5.481,56.6725,0.002165
5.497,56.6553,0.002165
5.514,56.6369,0.002165
5.529,56.6199,0.002165
5.545,56.6024,0.002203
5.561,56.5843,0.002203
5.577,56.5650,0.002203
5.593,56.5472,0.002203
5.609,56.5278,0.002203
5.625,56.5084,0.002203
5.641,56.4897,0.002203
5.657,56.4705,0.002203
5.673,56.4513,0.002203
5.689,56.4309,0.002203
5.705,56.4106,0.002203
5.721,56.3907,0.002203
5.737,56.3713,0.002203
5.753,56.3505,0.002203
5.769,56.3298,0.002203
5.785,56.3081,0.002222
5.801,56.2877,0.002222
5.818,56.2648,0.002222
5.845,56.2265,0.002222
5.861,56.2061,0.002222
5.877,56.1839,0.002222
5.893,56.1615,0.002222
5.909,56.1400,0.002222
5.925,56.1176,0.002222
5.941,56.0937,0.002222
5.957,56.0717,0.002222
5.973,56.0466,0.002222
5.989,56.0239,0.002222
6.005,56.0002,0.002222
6.021,55.9772,0.002222
6.037,55.9532,0.002278
6.053,55.9289,0.002278
6.069,55.9044,0.002278
6.085,55.8798,0.002278
6.101,55.8559,0.002278
6.117,55.8305,0.002278
6.133,55.8046,0.002278
6.148,55.7805,0.002278
6.164,55.7551,0.002278
6.182,55.7261,0.002278
6.201,55.6957,0.002278
6.232,55.6450,0.002278
6.264,55.5923,0.002278
6.294,55.5403,0.002297
6.309,55.5157,0.002297
6.324,55.4890,0.002297
6.341,55.4614,0.002297
6.369,55.4113,0.002297
6.385,55.3835,0.002297
6.400,55.3561,0.002297
6.417,55.3251,0.002297
6.440,55.2812,0.002297
6.455,55.2570,0.002297
6.479,55.2139,0.002297
6.498,55.1788,0.002297
6.525,55.1284,0.002419
6.545,55.0917,0.002419
6.560,55.0614,0.002419
6.576,55.0307,0.002419
6.592,55.0002,0.002419
6.608,54.9690,0.002419
6.626,54.9354,0.002419
6.647,54.8917,0.002419
6.663,54.8625,0.002419
6.678,54.8319,0.002419
6.695,54.7975,0.002419
6.725,54.7380,0.002419
6.741,54.7065,0.002419
6.772,54.6409,0.002626
6.788,54.6088,0.002626
6.819,54.5451,0.002626
6.834,54.5125,0.002626
6.864,54.4485,0.002626
6.880,54.4144,0.002626
6.896,54.3804,0.002626
6.925,54.3188,0.002626
6.941,54.2863,0.002626
6.957,54.2536,0.002626
6.973,54.2206,0.002626
6.989,54.1871,0.002626
7.005,54.1532,0.002626
7.020,54.1231,0.002655
7.036,54.0905,0.002655
7.052,54.0567,0.002655
7.068,54.0260,0.002655
7.085,53.9927,0.002655
7.111,53.9423,0.002655
7.141,53.8827,0.002655
7.172,53.8231,0.002655
7.203,53.7654,0.002655
7.218,53.7359,0.002655
7.234,53.7061,0.002655
7.250,53.6767,0.002655
7.280,53.6215,0.002645
7.311,53.5630,0.002645
7.342,53.5094,0.002645
7.372,53.4545,0.002645
7.388,53.4268,0.002645
7.405,53.3985,0.002645
7.421,53.3698,0.002645
7.450,53.3207,0.002645
7.477,53.2735,0.002645
7.494,53.2469,0.002645
7.509,53.2207,0.002758
7.526,53.1919,0.002758
7.542,53.1655,0.002758
7.558,53.1406,0.002758
7.574,53.1154,0.002758
7.589,53.0903,0.002758
7.611,53.0538,0.002758
7.635,53.0179,0.002758
7.653,52.9890,0.002758
7.670,52.9632,0.002758
7.686,52.9394,0.002758
7.701,52.9160,0.002758
7.717,52.8913,0.002758
7.734,52.8661,0.002758
7.749,52.8438,0.002758
7.766,52.8191,0.002975
7.781,52.7968,0.002975
7.799,52.7711,0.002975
7.814,52.7500,0.002975
7.829,52.7286,0.002975
7.845,52.7054,0.002975
7.862,52.6821,0.002975
7.877,52.6610,0.002975
7.894,52.6383,0.002975
7.909,52.6168,0.002975
7.926,52.5949,0.002975
7.941,52.5744,0.002975
7.957,52.5527,0.002975
7.973,52.5316,0.002975
7.990,52.5098,0.002975
8.021,52.4700,0.003144
8.040,52.4462,0.003144
8.068,52.4107,0.003144
8.085,52.3899,0.003144
8.101,52.3705,0.003144
8.118,52.3509,0.003144
8.133,52.3321,0.003144
8.149,52.3133,0.003144
8.165,52.2945,0.003144
8.181,52.2765,0.003144
8.197,52.2574,0.003144
8.213,52.2393,0.003144
8.229,52.2211,0.003144
8.245,52.2033,0.003144
8.261,52.1867,0.003304
8.277,52.1693,0.003304
8.293,52.1515,0.003304
8.309,52.1351,0.003304
8.325,52.1181,0.003304
8.342,52.1008,0.003304
8.357,52.0854,0.003304
8.373,52.0691,0.003304
8.389,52.0528,0.003304
8.405,52.0370,0.003304
8.421,52.0211,0.003304
8.437,52.0056,0.003304
8.453,51.9910,0.003304
8.476,51.9683,0.003304
8.499,51.9478,0.003304
8.517,51.9318,0.003304
8.544,51.9081,0.003521
8.567,51.8878,0.003521
8.591,51.8673,0.003521
8.607,51.8541,0.003521
8.624,51.8398,0.003521
8.639,51.8280,0.003521
8.655,51.8156,0.003521
8.674,51.7995,0.003521
8.699,51.7809,0.003521
8.719,51.7660,0.003521
8.735,51.7537,0.003521
8.751,51.7428,0.003521
8.767,51.7312,0.003662
8.783,51.7200,0.003662
8.799,51.7088,0.003662
8.815,51.6979,0.003662
8.831,51.6873,0.003662
8.847,51.6767,0.003662
8.864,51.6663,0.003662
8.879,51.6569,0.003662
8.895,51.6468,0.003662
8.911,51.6373,0.003662
8.928,51.6272,0.003662
8.943,51.6184,0.003662
8.959,51.6093,0.003662
8.975,51.6003,0.003662
8.991,51.5915,0.003662
9.007,51.5833,0.003756
9.023,51.5747,0.003756
9.041,51.5658,0.003756
9.070,51.5511,0.003756
9.096,51.5393,0.003756
9.112,51.5320,0.003756
9.128,51.5250,0.003756
9.144,51.5181,0.003756
9.160,51.5115,0.003756
9.176,51.5052,0.003756
9.192,51.4987,0.003756
9.208,51.4927,0.003756
9.224,51.4866,0.003756
9.240,51.4810,0.003756
9.256,51.4754,0.003831
9.272,51.4700,0.003831
9.287,51.4653,0.003831
9.304,51.4601,0.003831
9.323,51.4546,0.003831
9.350,51.4470,0.003831
9.368,51.4424,0.003831
9.383,51.4385,0.003831
9.399,51.4348,0.003831
9.415,51.4312,0.003831
9.433,51.4276,0.003831
9.448,51.4245,0.003831
9.464,51.4216,0.003831
9.479,51.4189,0.003831
9.495,51.4163,0.003831
9.512,51.4138,0.003831
9.527,51.4117,0.003925
9.544,51.4096,0.003925
9.559,51.4077,0.003925
9.576,51.4061,0.003925
9.591,51.4047,0.003925
9.608,51.4034,0.003925
9.624,51.4024,0.003925
9.640,51.4015,0.003925
9.656,51.4009,0.003925
9.671,51.4004,0.003925
9.688,51.4001,0.003925
9.704,51.4000,0.003925
9.719,51.4000,0.003925
9.736,51.4000,0.003925
9.751,51.4000,0.003925
9.767,51.4000,0.003925
9.783,51.4000,0.003944
9.799,51.4000,0.003944
9.819,51.4000,0.003944
9.842,51.4000,0.003944
9.857,51.4000,0.003944
9.880,51.4001,0.003944
9.896,51.4004,0.003944
9.911,51.4008,0.003944
9.927,51.4014,0.003944
9.944,51.4023,0.003944
9.959,51.4034,0.003944
9.975,51.4046,0.003944
9.992,51.4060,0.003944
10.008,51.4077,0.003944
10.023,51.4093,0.003972
10.040,51.4114,0.003972
10.056,51.4137,0.003972
10.072,51.4160,0.003972
10.088,51.4186,0.003972
10.104,51.4214,0.003972
10.119,51.4243,0.003972
10.136,51.4276,0.003972
10.151,51.4309,0.003972
10.179,51.4370,0.003972
10.194,51.4408,0.003972
10.210,51.4449,0.003972
10.227,51.4494,0.003972
10.245,51.4545,0.003972
10.274,51.4630,0.003963
10.290,51.4682,0.003963
10.307,51.4737,0.003963
10.329,51.4813,0.003963
10.352,51.4897,0.003963
10.372,51.4970,0.003963
10.399,51.5077,0.003963
10.419,51.5156,0.003963
10.435,51.5226,0.003963
10.450,51.5291,0.003963
10.466,51.5363,0.003963
10.482,51.5436,0.003963
10.499,51.5518,0.003963
10.514,51.5590,0.003906
10.530,51.5668,0.003906
10.546,51.5751,0.003906
10.563,51.5842,0.003906
10.583,51.5945,0.003906
10.598,51.6033,0.003906
10.614,51.6116,0.003906
10.645,51.6296,0.003906
10.675,51.6483,0.003906
10.691,51.6580,0.003906
10.707,51.6674,0.003906
10.736,51.6869,0.003906
10.752,51.6976,0.003906
10.768,51.7080,0.003831
10.784,51.7193,0.003831
10.801,51.7308,0.003831
10.817,51.7421,0.003831
10.832,51.7531,0.003831
10.848,51.7653,0.003831
10.864,51.7776,0.003831
10.881,51.7898,0.003831
10.896,51.8017,0.003831
10.912,51.8141,0.003831
10.930,51.8283,0.003831
10.953,51.8470,0.003831
10.968,51.8603,0.003831
10.985,51.8743,0.003831
11.015,51.9000,0.003831
11.046,51.9268,0.003643
11.077,51.9548,0.003643
11.107,51.9833,0.003643
11.123,51.9988,0.003643
11.139,52.0134,0.003643
11.154,52.0287,0.003643
11.170,52.0436,0.003643
11.187,52.0602,0.003643
11.217,52.0907,0.003643
11.234,52.1081,0.003643
11.249,52.1237,0.003643
11.279,52.1555,0.003445
11.298,52.1770,0.003445
11.325,52.2056,0.003445
11.344,52.2270,0.003445
11.361,52.2470,0.003445
11.376,52.2627,0.003445
11.392,52.2820,0.003445
11.409,52.3009,0.003445
11.424,52.3203,0.003445
11.441,52.3390,0.003445
11.465,52.3682,0.003445
11.500,52.4114,0.003445
11.521,52.4366,0.003445
11.542,52.4635,0.003295
11.573,52.5036,0.003295
11.604,52.5429,0.003295
11.619,52.5644,0.003295
11.635,52.5848,0.003295
11.666,52.6265,0.003295
11.683,52.6493,0.003295
11.713,52.6912,0.003295
11.743,52.7346,0.003295
11.760,52.7572,0.003238
11.776,52.7808,0.003238
11.791,52.8052,0.003238
11.815,52.8378,0.003238
11.831,52.8619,0.003238
11.847,52.8855,0.003238
11.863,52.9095,0.003238
11.879,52.9346,0.003238
11.895,52.9583,0.003238
11.911,52.9827,0.003238
11.927,53.0072,0.003238
11.943,53.0334,0.003238
11.959,53.0580,0.003238
11.975,53.0831,0.003238
11.990,53.1082,0.003238
12.008,53.1375,0.003238
12.024,53.1619,0.003116
12.054,53.2130,0.003116
12.077,53.2511,0.003116
12.100,53.2882,0.003116
12.119,53.3219,0.003116
12.135,53.3492,0.003116
12.151,53.3752,0.003116
12.167,53.4037,0.003116
12.184,53.4340,0.003116
12.199,53.4613,0.003116
12.215,53.4882,0.003116
12.231,53.5176,0.003116
12.252,53.5568,0.003116
12.270,53.5878,0.003116
12.300,53.6431,0.002956
12.317,53.6742,0.002956
12.332,53.7021,0.002956
12.363,53.7604,0.002956
12.394,53.8191,0.002956
12.425,53.8790,0.002956
12.455,53.9383,0.002956
12.472,53.9709,0.002956
12.501,54.0282,0.002815
12.519,54.0633,0.002815
12.535,54.0972,0.002815
12.550,54.1275,0.002815
12.567,54.1618,0.002815
12.583,54.1954,0.002815
12.599,54.2283,0.002815
12.625,54.2802,0.002815
12.654,54.3427,0.002815
12.685,54.4083,0.002815
12.715,54.4728,0.002815
12.734,54.5123,0.002815
12.761,54.5671,0.002815
12.777,54.6001,0.002626
12.793,54.6343,0.002626
12.824,54.6971,0.002626
12.840,54.7283,0.002626
12.855,54.7588,0.002626
12.871,54.7907,0.002626
12.899,54.8464,0.002626
12.916,54.8794,0.002626
12.931,54.9098,0.002626
12.947,54.9402,0.002626
12.964,54.9717,0.002626
12.980,55.0023,0.002626
12.995,55.0317,0.002626
13.011,55.0616,0.002551
13.027,55.0917,0.002551
13.043,55.1217,0.002551
13.060,55.1519,0.002551
13.076,55.1820,0.002551
13.092,55.2116,0.002551
13.108,55.2394,0.002551
13.124,55.2697,0.002551
13.139,55.2967,0.002551
13.155,55.3250,0.002551
13.171,55.3530,0.002551
13.188,55.3818,0.002551
13.204,55.4106,0.002551
13.219,55.4365,0.002551
13.235,55.4640,0.002551
13.252,55.4922,0.002551
13.267,55.5188,0.002551
13.283,55.5460,0.002579
13.299,55.5725,0.002579
13.315,55.5992,0.002579
13.332,55.6260,0.002579
13.348,55.6527,0.002579
13.364,55.6777,0.002579
13.379,55.7038,0.002579
13.396,55.7297,0.002579
13.411,55.7537,0.002579
13.441,55.8005,0.002579
13.457,55.8259,0.002579
13.473,55.8497,0.002579
13.488,55.8729,0.002579
13.505,55.8991,0.002579
13.520,55.9214,0.002579
13.537,55.9455,0.002523
13.552,55.9687,0.002523
13.569,55.9937,0.002523
13.585,56.0163,0.002523
13.601,56.0391,0.002523
13.616,56.0616,0.002523
13.633,56.0851,0.002523
13.648,56.1063,0.002523
13.664,56.1285,0.002523
13.680,56.1517,0.002523
13.697,56.1733,0.002523
13.713,56.1949,0.002523
13.728,56.2157,0.002523
13.744,56.2378,0.002523
13.761,56.2591,0.002523
13.776,56.2792,0.002523
13.792,56.2999,0.002372
13.808,56.3205,0.002372
13.824,56.3417,0.002372
13.840,56.3612,0.002372
13.856,56.3814,0.002372
13.872,56.4015,0.002372
13.888,56.4207,0.002372
13.904,56.4402,0.002372
13.920,56.4596,0.002372
13.936,56.4778,0.002372
13.952,56.4975,0.002372
13.968,56.5156,0.002372
13.997,56.5490,0.002372
14.013,56.5667,0.002372
14.029,56.5853,0.002240
14.045,56.6023,0.002240
14.062,56.6212,0.002240
14.077,56.6377,0.002240
14.093,56.6547,0.002240
14.109,56.6715,0.002240
14.133,56.6964,0.002240
14.158,56.7220,0.002240
14.173,56.7375,0.002240
14.189,56.7535,0.002240
14.205,56.7690,0.002240
14.221,56.7843,0.002240
14.237,56.7993,0.002240
14.258,56.8202,0.002240
14.280,56.8393,0.002240
14.311,56.8674,0.002156
14.342,56.8949,0.002156
14.358,56.9090,0.002156
14.388,56.9353,0.002156
14.419,56.9605,0.002156
14.449,56.9847,0.002156
14.480,57.0087,0.002156
14.510,57.0327,0.002156
14.525,57.0428,0.002156
14.556,57.0654,0.002071
14.587,57.0871,0.002071
14.603,57.0977,0.002071
14.620,57.1088,0.002071
14.649,57.1279,0.002071
14.667,57.1395,0.002071
14.684,57.1504,0.002071
14.711,57.1665,0.002071
14.731,57.1782,0.002071
14.748,57.1882,0.002071
14.773,57.2022,0.001977
14.795,57.2136,0.001977
14.812,57.2228,0.001977
14.835,57.2343,0.001977
14.851,57.2420,0.001977
14.866,57.2500,0.001977
14.882,57.2569,0.001977
14.913,57.2710,0.001977
14.929,57.2785,0.001977
14.946,57.2852,0.001977
14.976,57.2972,0.001977
15.007,57.3095,0.001977
15.023,57.3152,0.001836
15.039,57.3209,0.001836
15.070,57.3313,0.001836
15.086,57.3364,0.001836
15.102,57.3412,0.001836
15.132,57.3497,0.001836
15.147,57.3539,0.001836
15.163,57.3579,0.001836
15.181,57.3623,0.001836
15.210,57.3688,0.001836
15.227,57.3725,0.001836
15.243,57.3756,0.001836
15.259,57.3786,0.001836
15.275,57.3813,0.001534
15.291,57.3840,0.001534
15.308,57.3865,0.001534
15.323,57.3886,0.001534
15.339,57.3906,0.001534
15.355,57.3923,0.001534
15.371,57.3941,0.001534
15.387,57.3954,0.001534
15.403,57.3967,0.001534
15.419,57.3977,0.001534
15.435,57.3985,0.001534
15.450,57.3992,0.001534
15.467,57.3997,0.001534
15.483,57.3999,0.001534
15.499,57.4000,0.001534
15.514,57.4000,0.001158
15.531,57.4000,0.001158
15.547,57.4000,0.001158
15.562,57.4000,0.001158
15.579,57.4000,0.001158
15.607,57.4000,0.001158
15.623,57.4000,0.001158
15.638,57.4000,0.001158
15.655,57.4000,0.001158
15.670,57.4000,0.001158
15.686,57.4000,0.001158
15.703,57.4000,0.001158
15.718,57.4000,0.001158
15.735,57.4000,0.001158
15.750,57.4000,0.001158
15.766,57.4000,0.001308
15.782,57.4000,0.001308
15.799,57.4000,0.001308
15.830,57.4000,0.001308
15.848,57.4000,0.001308
15.863,57.4000,0.001308
15.878,57.4000,0.001308
15.895,57.4000,0.001308
15.910,57.4000,0.001308
15.927,57.4000,0.001308
