Elapsed Time (s),Position (mm),Force (N)
-0.008,66.2001,-0.035045
0.022,66.2001,-0.031420
0.054,66.2001,-0.032628
0.088,66.2001,-0.033837
0.116,66.2001,-0.027794
0.147,66.2001,-0.030211
0.179,66.2001,-0.029003
0.211,66.2001,-0.033837
0.243,66.2001,-0.031420
0.274,66.2001,-0.029003
0.305,66.2001,-0.025377
0.337,66.2001,-0.030211
0.367,66.2001,-0.027794
0.398,66.2001,-0.031420
0.429,66.2001,-0.035045
0.463,66.2001,-0.033837
0.492,66.2001,-0.026586
0.522,66.2001,-0.027794
0.553,66.2001,-0.026586
0.574,66.2001,-0.026586
0.599,66.2001,-0.026586
0.631,66.2001,-0.031420
0.662,66.2001,-0.029003
0.693,66.2001,-0.031420
0.725,66.2001,-0.030211
0.755,66.2001,-0.029003
0.791,66.2001,-0.027794
0.818,66.2001,-0.029003
0.848,66.2001,-0.029003
0.879,66.2001,-0.021752
0.910,66.2001,-0.027794
0.942,66.2001,-0.025377
0.973,66.2001,-0.021752
1.004,66.2001,-0.025377
1.035,66.2001,-0.032628
1.067,66.2001,-0.033837
1.098,66.2001,-0.020544
1.118,66.2001,-0.026586
1.145,66.2001,-0.030211
1.166,66.2001,-0.030211
1.192,66.2001,-0.027794
1.224,66.2001,-0.025377
1.254,66.2001,-0.022961
1.289,66.2001,-0.026586
1.310,66.2001,-0.025377
1.333,66.2001,-0.025377
1.363,66.2001,-0.026586
1.394,66.2001,-0.029003
1.425,66.2001,-0.026586
1.456,66.2001,-0.022961
1.488,66.2001,-0.021752
1.519,66.2001,-0.026586
1.552,66.2001,-0.027794
1.582,66.2001,-0.025377
1.613,66.2001,-0.022961
1.645,66.2001,-0.021752
1.668,66.2001,-0.021752
1.692,66.2001,-0.027794
1.723,66.2001,-0.024169
1.754,66.2001,-0.026586
1.775,66.2001,-0.026586
1.800,66.2001,-0.024169
1.830,66.2001,-0.025377
1.861,66.2001,-0.031420
1.892,66.2001,-0.026586
1.924,66.2001,-0.027794
1.955,66.2001,-0.027794
1.985,66.2001,-0.025377
2.016,66.2001,-0.022961
2.047,66.2001,-0.022961
2.078,66.2001,-0.027794
2.108,66.2001,-0.022961
2.139,66.2001,-0.020544
2.170,66.2001,-0.019335
2.201,66.2001,-0.027794
2.221,66.2001,-0.026586
2.248,66.2001,-0.026586
2.280,66.2001,-0.027794
2.309,66.2001,-0.025377
2.341,66.2001,-0.025377
2.372,66.2001,-0.024169
2.402,66.2001,-0.026586
2.434,66.2001,-0.025377
2.464,66.2001,-0.022961
2.496,66.2001,-0.025377
2.526,66.2001,-0.025377
2.558,66.2001,-0.026586
2.589,66.2001,-0.024169
2.621,66.2001,-0.021752
2.652,66.2001,-0.024169
2.682,66.2001,-0.024169
2.713,66.2001,-0.024169
2.745,66.2001,-0.027794
2.766,66.2001,-0.027794
2.791,66.2001,-0.020544
2.823,66.2001,-0.025377
2.853,66.2001,-0.025377
2.884,66.2001,-0.027794
2.915,66.2001,-0.027794
2.946,66.2001,-0.022961
2.977,66.2001,-0.025377
3.008,66.2001,-0.025377
3.041,66.2001,-0.026586
3.071,66.2001,-0.024169
3.101,66.2001,-0.022961
3.132,66.2001,-0.024169
3.164,66.2001,-0.024169
3.196,66.2001,-0.024169
3.227,66.2001,-0.029003
3.260,66.2001,-0.025377
3.290,66.2001,-0.025377
3.322,66.2001,-0.024169
3.352,66.2001,-0.025377
3.383,66.2001,-0.025377
3.404,66.2001,-0.021752
3.430,66.2001,-0.020544
3.460,66.2001,-0.021752
3.492,66.2001,-0.021752
3.523,66.2001,-0.022961
3.554,66.2001,-0.026586
3.585,66.2001,-0.025377
3.616,66.2001,-0.030211
3.647,66.2001,-0.029003
3.678,66.2001,-0.022961
3.709,66.2001,-0.024169
3.741,66.2001,-0.021752
3.772,66.2001,-0.020544
3.803,66.2001,-0.021752
3.834,66.2001,-0.020544
3.865,66.2001,-0.025377
3.896,66.2001,-0.025377
3.916,66.2001,-0.025377
3.944,66.2001,-0.020544
3.975,66.2001,-0.020544
3.996,66.2001,-0.020544
4.021,66.2001,-0.019335
4.051,66.2001,-0.021752
4.089,66.2001,-0.021752
4.114,66.2001,-0.024169
4.144,66.2001,-0.024169
4.175,66.2001,-0.024169
4.206,66.2001,-0.024169
4.238,66.2001,-0.019335
4.269,66.2001,-0.019335
4.299,66.2001,-0.021752
4.330,66.2001,-0.026586
4.361,66.2001,-0.021752
4.393,66.2001,-0.026586
4.423,66.2001,-0.020544
4.444,66.2001,-0.020544
4.470,66.2001,-0.020544
4.501,66.2001,-0.019335
4.532,66.2001,-0.021752
4.563,66.2001,-0.024169
4.593,66.2001,-0.025377
4.625,66.2001,-0.021752
4.656,66.2001,-0.022961
4.688,66.2001,-0.022961
4.720,66.2001,-0.021752
4.751,66.2001,-0.022961
4.782,66.2001,-0.021752
4.812,66.2001,-0.025377
4.842,66.2001,-0.021752
4.875,66.2001,-0.024169
4.905,66.2001,-0.029003
4.938,66.2001,-0.025377
4.967,66.2001,-0.024169
4.997,66.2001,-0.025377
5.018,66.2001,-0.025377
5.043,66.2001,-0.021752
5.076,66.2001,-0.020544
5.106,66.2001,-0.019335
5.136,66.2001,-0.026586
5.167,66.2001,-0.030211
5.199,66.2001,-0.024169
5.231,66.2001,-0.020544
5.266,66.2001,-0.025377
5.294,66.2001,-0.022961
5.323,66.2001,-0.018127
5.354,66.2001,-0.022961
5.385,66.2001,-0.019335
5.417,66.2001,-0.021752
5.438,66.2001,-0.021752
5.464,66.2001,-0.022961
5.493,66.2001,-0.022961
5.524,66.2001,-0.022961
5.555,66.2001,-0.024169
5.586,66.2001,-0.024169
5.617,66.2001,-0.020544
5.639,66.2001,-0.019335
5.663,66.2001,-0.019335
5.696,66.2001,-0.024169
5.722,66.2001,-0.024169
5.757,66.2001,-0.026586
5.788,66.2001,-0.020544
5.818,66.2001,-0.022961
5.849,66.2001,-0.025377
5.881,66.2001,-0.020544
5.911,66.2001,-0.021752
5.944,66.2001,-0.022961
5.974,66.2001,-0.021752
6.005,66.2001,-0.024169
6.036,66.2001,-0.025377
6.067,66.2001,-0.021752
6.098,66.2001,-0.022961
6.118,66.2001,-0.022961
6.144,66.2001,-0.022961
6.175,66.2001,-0.020544
6.206,66.2001,-0.020544
6.237,66.2001,-0.020544
6.268,66.2001,-0.022961
6.299,66.2001,-0.022961
6.331,66.2001,-0.022961
6.361,66.2001,-0.021752
6.392,66.2001,-0.021752
6.424,66.2001,-0.021752
6.456,66.2001,-0.021752
6.487,66.2001,-0.021752
6.517,66.2001,-0.026586
6.548,66.2001,-0.025377
6.579,66.2001,-0.022961
6.610,66.2001,-0.021752
6.641,66.2001,-0.021752
6.662,66.2001,-0.024169
6.687,66.2001,-0.024169
6.719,66.2001,-0.018127
6.749,66.2001,-0.021752
6.781,66.2001,-0.024169
6.812,66.2001,-0.025377
6.842,66.2001,-0.020544
6.874,66.2001,-0.020544
6.905,66.2001,-0.026586
6.937,66.2001,-0.019335
6.968,66.2001,-0.019335
6.999,66.2001,-0.020544
7.031,66.2001,-0.020544
7.061,66.2001,-0.020544
7.091,66.2001,-0.021752
7.123,66.2001,-0.030211
7.154,66.2001,-0.022961
7.186,66.2001,-0.021752
7.218,66.2001,-0.020544
7.248,66.2001,-0.021752
7.270,66.2001,-0.020544
7.295,66.2001,-0.020544
7.325,66.2001,-0.021752
7.357,66.2001,-0.021752
7.390,66.2001,-0.020544
7.420,66.2001,-0.024169
7.450,66.2001,-0.020544
7.482,66.2001,-0.019335
7.513,66.2001,-0.021752
7.544,66.2001,-0.021752
7.576,66.2001,-0.022961
7.608,66.2001,-0.022961
7.631,66.2001,-0.024169
7.654,66.2001,-0.024169
7.684,66.2001,-0.026586
7.717,66.2001,-0.024169
7.746,66.2001,-0.020544
7.777,66.2001,-0.024169
7.809,66.2001,-0.021752
7.840,66.2001,-0.021752
7.871,66.2001,-0.024169
7.903,66.2001,-0.021752
7.934,66.2001,-0.021752
7.965,66.2001,-0.021752
7.996,66.2001,-0.019335
8.027,66.2001,-0.018127
8.047,66.2001,-0.021752
8.072,66.2001,-0.024169
8.103,66.2001,-0.022961
8.134,66.2001,-0.021752
8.166,66.2001,-0.021752
8.196,66.2001,-0.029003
8.228,66.2001,-0.027794
8.258,66.2001,-0.027794
8.289,66.2001,-0.025377
8.318,66.2001,-0.021752
8.349,66.2001,-0.018127
8.370,66.2001,-0.018127
8.396,66.2001,-0.025377
8.428,66.2001,-0.025377
8.448,66.2001,-0.025377
8.474,66.2001,-0.020544
8.495,66.2001,-0.020544
8.520,66.2001,-0.022961
8.551,66.2001,-0.024169
8.584,66.2001,-0.019335
8.615,66.2001,-0.021752
8.646,66.2001,-0.025377
8.677,66.2001,-0.018127
8.699,66.2001,-0.021752
8.724,66.2001,-0.021752
8.755,66.2001,-0.020544
8.785,66.2001,-0.020544
8.817,66.2001,-0.024169
8.848,66.2001,-0.020544
8.879,66.2001,-0.021752
8.910,66.2001,-0.018127
8.941,66.2001,-0.019335
8.971,66.2001,-0.024169
9.002,66.2001,-0.026586
9.034,66.2001,-0.019335
9.065,66.2001,-0.019335
9.085,66.2001,-0.021752
9.112,66.2001,-0.018127
9.143,66.2001,-0.021752
9.174,66.2001,-0.022961
9.205,66.2001,-0.022961
9.236,66.2001,-0.022961
9.258,66.2001,-0.022961
9.281,66.2001,-0.024169
9.313,66.2001,-0.020544
9.342,66.2001,-0.022961
9.373,66.2001,-0.022961
9.405,66.2001,-0.021752
9.436,66.2001,-0.022961
9.467,66.2001,-0.022961
9.498,66.2001,-0.021752
9.529,66.2001,-0.022961
9.550,66.2001,-0.022961
9.576,66.2001,-0.027794
9.608,66.2001,-0.026586
9.638,66.2001,-0.020544
9.669,66.2001,-0.025377
9.689,66.2001,-0.027794
9.715,66.2001,-0.026586
9.746,66.2001,-0.025377
9.777,66.2001,-0.022961
9.798,66.2001,-0.022961
9.825,66.2001,-0.022961
9.855,66.2001,-0.020544
9.887,66.2001,-0.022961
9.917,66.2001,-0.022961
9.948,66.2001,-0.024169
9.979,66.2001,-0.020544
10.011,66.2001,-0.024169
10.042,66.2001,-0.026586
10.073,66.2001,-0.022961
10.105,66.2001,-0.020544
10.136,66.2001,-0.022961
10.168,66.2001,-0.022961
10.200,66.2001,-0.026586
10.231,66.2001,-0.019335
10.261,66.2001,-0.020544
10.293,66.2001,-0.019335
10.323,66.2001,-0.020544
10.354,66.2001,-0.024169
10.374,66.2001,-0.024169
10.400,66.2001,-0.024169
10.432,66.2001,-0.022961
10.463,66.2001,-0.024169
10.494,66.2001,-0.020544
10.525,66.2001,-0.024169
10.557,66.2001,-0.020544
10.588,66.2001,-0.018127
10.618,66.2001,-0.022961
10.649,66.2001,-0.019335
10.680,66.2001,-0.016918
10.712,66.2001,-0.021752
10.744,66.2001,-0.021752
10.776,66.2001,-0.021752
10.808,66.2001,-0.021752
10.839,66.2001,-0.025377
10.870,66.2001,-0.021752
10.901,66.2001,-0.022961
10.932,66.2001,-0.024169
10.962,66.2001,-0.025377
10.993,66.2001,-0.021752
11.025,66.2001,-0.019335
11.046,66.2001,-0.019335
11.072,66.2001,-0.024169
11.103,66.2001,-0.019335
11.125,66.2001,-0.019335
11.150,66.1907,-0.021752
11.180,66.1025,-0.003625
11.211,66.0091,-0.009668
11.243,65.9152,-0.001208
11.273,65.8220,0.007251
11.304,65.7287,0.013293
11.336,65.6338,0.032628
11.366,65.5433,0.032628
11.398,65.4494,0.054380
11.428,65.3585,0.060422
11.460,65.2621,0.071298
11.490,65.1722,0.077341
11.520,65.0794,0.084591
11.550,64.9919,0.102718
11.581,64.8989,0.109969
11.612,64.8073,0.124470
11.643,64.7138,0.137763
11.674,64.6193,0.141388
11.705,64.5275,0.152264
11.735,64.4369,0.155890
11.766,64.3442,0.159515
11.798,64.2493,0.153473
11.830,64.1540,0.151056
11.862,64.0571,0.152264
11.892,63.9679,0.149848
11.923,63.8734,0.142597
11.955,63.7763,0.128095
11.985,63.6884,0.085800
12.017,63.5912,0.006042
12.048,63.4994,0.004834
12.070,63.4346,0.000000
12.094,63.3596,0.001208
12.116,63.2957,0.001208
12.141,63.2195,0.002417
12.172,63.1285,0.000000
12.204,63.0326,0.002417
12.234,62.9405,-0.002417
12.266,62.8442,-0.002417
12.297,62.7533,0.000000
12.328,62.6566,-0.003625
12.360,62.5613,-0.001208
12.392,62.4671,0.004834
12.422,62.3780,0.000000
12.454,62.2826,-0.002417
12.485,62.1863,0.001208
12.516,62.0972,-0.002417
12.546,62.0054,-0.004834
12.577,61.9121,-0.001208
12.609,61.8172,0.001208
12.640,61.7213,-0.001208
12.671,61.6292,0.000000
12.692,61.5683,0.002417
12.718,61.4903,-0.002417
12.748,61.3979,-0.003625
12.780,61.3026,-0.001208
12.811,61.2107,0.002417
12.842,61.1165,0.000000
12.873,61.0241,0.000000
12.904,60.9309,0.001208
12.935,60.8372,-0.003625
12.966,60.7423,-0.001208
12.998,60.6494,-0.006042
13.029,60.5552,0.001208
13.060,60.4625,0.003625
13.091,60.3698,0.000000
13.121,60.2810,0.002417
13.152,60.1883,0.002417
13.182,60.1501,0.000000
13.213,60.1501,-0.020544
13.246,60.1501,0.002417
13.267,60.1501,0.002417
13.290,60.1501,-0.001208
13.321,60.1501,-0.004834
13.353,60.1501,-0.004834
13.384,60.1501,0.001208
13.416,60.1501,0.001208
13.446,60.1501,-0.002417
13.479,60.1501,-0.001208
13.509,60.1501,0.001208
13.539,60.1501,-0.001208
13.570,60.1501,0.000000
13.592,60.1501,0.000000
13.617,60.2082,0.000000
13.648,60.3024,-0.018127
13.679,60.3948,-0.002417
13.710,60.4866,-0.003625
13.741,60.5820,-0.001208
13.773,60.6750,-0.002417
13.804,60.7719,-0.003625
13.835,60.8615,-0.003625
13.866,60.9545,-0.003625
13.898,61.0505,-0.001208
13.929,61.1436,0.001208
13.960,61.2378,-0.002417
13.991,61.3292,0.001208
14.023,61.4243,-0.001208
14.053,61.5144,0.002417
14.073,61.5759,0.002417
14.099,61.6539,-0.004834
14.120,61.7169,0.003625
14.145,61.7924,0.003625
14.176,61.8867,0.001208
14.206,61.9776,-0.002417
14.237,62.0705,0.001208
14.268,62.1641,-0.001208
14.300,62.2586,-0.006042
14.331,62.3493,-0.003625
14.362,62.4413,0.000000
14.393,62.5358,0.000000
14.424,62.6307,-0.004834
14.454,62.7221,0.001208
14.485,62.8143,-0.002417
14.517,62.9084,-0.004834
14.548,63.0014,-0.006042
14.579,63.0951,-0.001208
14.600,63.1566,-0.003625
14.626,63.2342,-0.003625
14.657,63.3291,-0.002417
14.687,63.4205,-0.003625
14.719,63.5150,-0.002417
14.750,63.6072,-0.006042
14.781,63.7004,-0.003625
14.811,63.7911,-0.003625
14.843,63.8852,-0.003625
14.875,63.9816,-0.008459
14.907,64.0770,-0.008459
14.937,64.1687,-0.004834
14.969,64.2653,-0.004834
14.999,64.3569,-0.003625
15.031,64.4493,-0.002417
15.062,64.5429,-0.008459
15.093,64.6394,-0.006042
15.124,64.7271,-0.003625
15.144,64.7880,-0.006042
15.169,64.8648,-0.008459
15.200,64.9574,-0.008459
15.221,65.0214,-0.006042
15.247,65.0982,-0.006042
15.278,65.1935,-0.013293
15.309,65.2838,-0.014501
15.342,65.3849,-0.013293
15.372,65.4722,-0.016918
15.403,65.5682,-0.015710
15.435,65.6606,-0.018127
15.466,65.7560,-0.016918
15.496,65.8460,-0.030211
15.527,65.9414,-0.030211
15.558,66.0317,-0.035045
15.590,66.1262,-0.035045
15.621,66.1501,-0.037462
15.652,66.1501,-0.032628
15.684,66.1501,-0.043504
15.716,66.1501,-0.041087
15.745,66.1501,-0.042296
15.776,66.1501,-0.041087
15.808,66.1501,-0.039879
15.838,66.1501,-0.036253
15.869,66.1501,-0.035045
15.901,66.1501,-0.036253
15.931,66.1501,-0.033837
15.952,66.1501,-0.036253
15.978,66.1501,-0.032628
16.010,66.1501,-0.033837
16.040,66.1501,-0.036253
16.072,66.1501,-0.032628
16.104,66.1501,-0.036253
16.134,66.1501,-0.036253
16.166,66.1501,-0.036253
16.196,66.1501,-0.033837
16.228,66.1501,-0.033837
16.258,66.1501,-0.031420
16.288,66.1501,-0.029003
16.320,66.1501,-0.029003
16.341,66.1501,-0.029003
16.367,66.1501,-0.032628
16.399,66.1501,-0.032628
16.430,66.1501,-0.026586
16.461,66.1501,-0.027794
16.492,66.1501,-0.030211
16.523,66.1501,-0.029003
16.554,66.1501,-0.029003
16.586,66.1501,-0.027794
16.617,66.1501,-0.026586
16.650,66.1501,-0.026586
16.679,66.1501,-0.022961
16.710,66.1501,-0.030211
16.741,66.1501,-0.029003
16.771,66.1501,-0.032628
16.803,66.1501,-0.031420
16.835,66.1501,-0.029003
16.866,66.1501,-0.029003
16.896,66.1501,-0.026586
16.918,66.1501,-0.026586
16.942,66.1501,-0.026586
16.972,66.1501,-0.030211
17.004,66.1501,-0.027794
17.035,66.1501,-0.022961
17.067,66.1501,-0.029003
17.097,66.1501,-0.029003
17.133,66.1501,-0.029003
17.158,66.1501,-0.029003
17.189,66.1501,-0.027794
17.221,66.1501,-0.027794
17.252,66.1501,-0.027794
17.283,66.1501,-0.027794
17.314,66.1501,-0.026586
17.344,66.1501,-0.021752
17.365,66.1501,-0.022961
17.392,66.1501,-0.022961
17.413,66.1501,-0.024169
17.439,66.1501,-0.025377
17.470,66.1501,-0.027794
17.501,66.1501,-0.022961
17.533,66.1501,-0.029003
17.564,66.1501,-0.029003
17.595,66.1501,-0.027794
17.625,66.1501,-0.022961
17.657,66.1501,-0.027794
17.689,66.1501,-0.026586
17.720,66.1501,-0.027794
17.750,66.1501,-0.025377
17.782,66.1501,-0.024169
17.813,66.1501,-0.022961
17.844,66.1501,-0.021752
17.875,66.1501,-0.027794
17.906,66.1501,-0.031420
17.937,66.1501,-0.024169
17.971,66.1501,-0.024169
18.000,66.1501,-0.024169
18.022,66.1501,-0.025377
18.045,66.1501,-0.027794
18.067,66.1501,-0.025377
18.092,66.1501,-0.025377
18.124,66.1501,-0.029003
18.156,66.1501,-0.025377
18.185,66.1501,-0.026586
18.217,66.1501,-0.019335
18.247,66.1501,-0.024169
18.278,66.1501,-0.024169
18.308,66.1501,-0.022961
18.340,66.1501,-0.021752
18.371,66.1501,-0.026586
18.403,66.1501,-0.027794
18.434,66.1501,-0.019335
18.465,66.1501,-0.021752
18.496,66.1501,-0.025377
18.527,66.1501,-0.024169
18.558,66.1501,-0.024169
18.578,66.1501,-0.022961
18.605,66.1501,-0.022961
18.636,66.1501,-0.025377
18.666,66.1501,-0.026586
18.697,66.1501,-0.025377
18.727,66.1501,-0.024169
18.758,66.1501,-0.022961
18.788,66.1501,-0.021752
18.819,66.1501,-0.025377
18.850,66.1501,-0.029003
18.880,66.1501,-0.025377
18.911,66.1501,-0.025377
18.942,66.1501,-0.022961
18.962,66.1501,-0.024169
18.989,66.1501,-0.024169
19.010,66.1501,-0.024169
19.036,66.1501,-0.024169
19.068,66.1501,-0.022961
19.097,66.1501,-0.025377
19.132,66.1501,-0.021752
19.161,66.1501,-0.022961
19.192,66.1501,-0.025377
19.225,66.1501,-0.022961
19.255,66.1501,-0.021752
19.286,66.1501,-0.020544
19.317,66.1501,-0.024169
19.353,66.1501,-0.022961
19.379,66.1501,-0.027794
19.410,66.1501,-0.027794
19.440,66.1501,-0.025377
19.470,66.1501,-0.024169
19.502,66.1501,-0.022961
19.533,66.1501,-0.025377
19.554,66.1501,-0.025377
19.580,66.1501,-0.022961
19.610,66.1501,-0.024169
19.643,66.1501,-0.024169
19.673,66.1501,-0.025377
19.703,66.1501,-0.024169
19.734,66.1501,-0.025377
19.764,66.1501,-0.021752
19.795,66.1501,-0.021752
19.826,66.1501,-0.022961
19.856,66.1501,-0.022961
19.888,66.1501,-0.022961
19.919,66.1501,-0.021752
19.950,66.1501,-0.022961
19.970,66.1501,-0.024169
19.996,66.1501,-0.025377
20.027,66.1501,-0.027794
20.059,66.1501,-0.021752
20.090,66.1501,-0.024169
20.121,66.1501,-0.020544
20.143,66.1501,-0.019335
20.167,66.1501,-0.019335
20.199,66.1501,-0.020544
20.230,66.1501,-0.022961
20.261,66.1501,-0.024169
20.292,66.1501,-0.020544
20.322,66.1501,-0.020544
20.355,66.1501,-0.022961
20.386,66.1501,-0.024169
20.416,66.1501,-0.019335
20.448,66.1501,-0.019335
20.479,66.1501,-0.022961
20.510,66.1501,-0.026586
20.541,66.1501,-0.020544
20.572,66.1501,-0.024169
20.602,66.1501,-0.019335
20.634,66.1501,-0.020544
20.664,66.1501,-0.020544
20.686,66.1501,-0.021752
20.711,66.1501,-0.020544
20.742,66.1501,-0.025377
20.773,66.1501,-0.022961
20.804,66.1501,-0.022961
20.835,66.1501,-0.020544
20.866,66.1501,-0.021752
20.897,66.1501,-0.024169
20.928,66.1501,-0.024169
20.959,66.1501,-0.020544
20.990,66.1501,-0.022961
21.021,66.1501,-0.022961
21.053,66.1501,-0.024169
21.086,66.1501,-0.024169
21.116,66.1501,-0.020544
21.149,66.1501,-0.025377
21.178,66.1501,-0.029003
21.210,66.1501,-0.022961
21.241,66.1501,-0.018127
21.261,66.1501,-0.020544
21.288,66.1501,-0.025377
21.309,66.1501,-0.025377
21.333,66.1501,-0.025377
21.364,66.1501,-0.018127
21.395,66.1501,-0.018127
21.426,66.1501,-0.021752
21.457,66.1501,-0.020544
21.489,66.1501,-0.016918
21.519,66.1501,-0.021752
21.551,66.1501,-0.019335
21.582,66.1501,-0.020544
21.613,66.1501,-0.024169
21.644,66.1501,-0.024169
21.676,66.1501,-0.025377
21.707,66.1501,-0.021752
21.738,66.1501,-0.025377
21.768,66.1501,-0.026586
21.789,66.1501,-0.022961
21.815,66.1501,-0.022961
21.846,66.1501,-0.019335
21.878,66.1501,-0.024169
21.909,66.1501,-0.021752
21.942,66.1501,-0.022961
21.971,66.1501,-0.020544
22.002,66.1501,-0.020544
22.034,66.1501,-0.022961
22.065,66.1501,-0.016918
22.096,66.1501,-0.021752
22.127,66.1501,-0.021752
22.157,66.1501,-0.027794
22.189,66.1501,-0.024169
22.219,66.1501,-0.024169
22.252,66.1501,-0.021752
22.282,66.1501,-0.022961
22.316,66.1501,-0.022961
22.344,66.1501,-0.019335
22.375,66.1501,-0.025377
22.396,66.1501,-0.025377
22.421,66.1501,-0.020544
22.452,66.1501,-0.026586
22.484,66.1501,-0.020544
22.515,66.1501,-0.021752
22.546,66.1501,-0.020544
22.577,66.1501,-0.025377
22.608,66.1501,-0.022961
22.641,66.1501,-0.020544
22.670,66.1501,-0.021752
22.701,66.1501,-0.021752
22.733,66.1501,-0.019335
22.763,66.1501,-0.020544
22.795,66.1501,-0.024169
22.826,66.1501,-0.024169
22.858,66.1501,-0.022961
22.889,66.1501,-0.021752
22.919,66.1501,-0.022961
22.940,66.1501,-0.024169
22.965,66.1501,-0.024169
22.996,66.1501,-0.026586
23.027,66.1501,-0.022961
23.058,66.1501,-0.019335
23.088,66.1501,-0.021752
23.119,66.1501,-0.022961
23.150,66.1501,-0.021752
23.181,66.1501,-0.021752
23.213,66.1501,-0.019335
23.243,66.1501,-0.022961
23.274,66.1501,-0.025377
23.306,66.1501,-0.025377
23.335,66.1501,-0.021752
23.369,66.1501,-0.019335
23.390,66.1501,-0.019335
23.412,66.1501,-0.020544
23.443,66.1501,-0.020544
23.473,66.1501,-0.022961
23.504,66.1501,-0.025377
23.535,66.1501,-0.024169
23.566,66.1501,-0.022961
23.598,66.1501,-0.021752
23.629,66.1501,-0.021752
23.659,66.1501,-0.024169
23.690,66.1501,-0.020544
23.721,66.1501,-0.022961
23.744,66.1501,-0.021752
23.768,66.1501,-0.019335
23.799,66.1501,-0.024169
23.819,66.1501,-0.021752
23.845,66.1501,-0.021752
23.875,66.1501,-0.019335
23.906,66.1501,-0.018127
23.937,66.1501,-0.020544
23.969,66.1501,-0.022961
23.993,66.1501,-0.022961
24.014,66.1501,-0.021752
24.045,66.1501,-0.022961
24.076,66.1501,-0.025377
24.107,66.1501,-0.025377
24.138,66.1501,-0.018127
24.170,66.1501,-0.019335
24.200,66.1501,-0.021752
24.231,66.1501,-0.016918
