Elapsed Time (s),Position (mm),Force (N)
-0.012,56.2001,-0.029003
0.019,56.2001,-0.031420
0.050,56.2001,-0.027794
0.080,56.2001,-0.024169
0.111,56.2001,-0.027794
0.143,56.2001,-0.027794
0.174,56.2001,-0.027794
0.206,56.2001,-0.027794
0.236,56.2001,-0.021752
0.268,56.2001,-0.022961
0.299,56.2001,-0.025377
0.330,56.2001,-0.024169
0.361,56.2001,-0.025377
0.381,56.2001,-0.020544
0.407,56.2001,-0.022961
0.438,56.2001,-0.025377
0.470,56.2001,-0.024169
0.499,56.2001,-0.025377
0.530,56.2001,-0.022961
0.561,56.2001,-0.026586
0.593,56.2001,-0.024169
0.624,56.2001,-0.024169
0.654,56.2001,-0.025377
0.685,56.2001,-0.024169
0.716,56.2001,-0.024169
0.747,56.2001,-0.022961
0.778,56.2001,-0.024169
0.809,56.2001,-0.025377
0.839,56.2001,-0.020544
0.861,56.2001,-0.022961
0.886,56.2001,-0.022961
0.917,56.2001,-0.024169
0.948,56.2001,-0.022961
0.979,56.2001,-0.020544
1.010,56.2001,-0.022961
1.042,56.2001,-0.020544
1.073,56.2001,-0.022961
1.105,56.2001,-0.027794
1.135,56.2001,-0.025377
1.167,56.2001,-0.020544
1.198,56.2001,-0.020544
1.229,56.2001,-0.021752
1.260,56.2001,-0.024169
1.291,56.2001,-0.020544
1.322,56.2001,-0.019335
1.354,56.2001,-0.025377
1.386,56.2001,-0.024169
1.417,56.2001,-0.016918
1.448,56.2001,-0.016918
1.468,56.2001,-0.019335
1.494,56.2001,-0.024169
1.525,56.2001,-0.014501
1.556,56.2001,-0.019335
1.588,56.2001,-0.019335
1.619,56.2001,-0.020544
1.650,56.2001,-0.018127
1.681,56.2001,-0.019335
1.713,56.2001,-0.019335
1.745,56.2001,-0.020544
1.774,56.2001,-0.016918
1.805,56.2001,-0.020544
1.835,56.2001,-0.019335
1.866,56.2001,-0.018127
1.899,56.2001,-0.022961
1.929,56.2001,-0.018127
1.961,56.2001,-0.022961
1.992,56.2001,-0.016918
2.022,56.2001,-0.016918
2.057,56.2001,-0.021752
2.084,56.2001,-0.021752
2.115,56.2001,-0.019335
2.146,56.2001,-0.016918
2.178,56.2001,-0.018127
2.209,56.2001,-0.021752
2.240,56.2001,-0.022961
2.271,56.2001,-0.016918
2.303,56.2001,-0.019335
2.333,56.2001,-0.016918
2.364,56.2001,-0.016918
2.394,56.2001,-0.016918
2.426,56.2001,-0.018127
2.457,56.2001,-0.019335
2.488,56.2001,-0.020544
2.519,56.2001,-0.020544
2.540,56.2001,-0.021752
2.565,56.2001,-0.021752
2.597,56.2001,-0.024169
2.628,56.2001,-0.022961
2.649,56.2001,-0.020544
2.675,56.2001,-0.020544
2.706,56.2001,-0.019335
2.737,56.2001,-0.019335
2.768,56.2001,-0.020544
2.798,56.2001,-0.018127
2.829,56.2001,-0.020544
2.860,56.2001,-0.019335
2.890,56.2001,-0.016918
2.922,56.2001,-0.016918
2.953,56.2001,-0.022961
2.984,56.2001,-0.020544
3.017,56.2001,-0.019335
3.047,56.2001,-0.020544
3.077,56.2001,-0.020544
3.108,56.2001,-0.024169
3.128,56.2001,-0.020544
3.154,56.2001,-0.019335
3.185,56.2001,-0.019335
3.206,56.2001,-0.020544
3.232,56.2001,-0.020544
3.263,56.2001,-0.020544
3.294,56.2001,-0.019335
3.324,56.2001,-0.021752
3.357,56.2001,-0.021752
3.387,56.2001,-0.016918
3.419,56.2001,-0.016918
3.450,56.2001,-0.021752
3.481,56.2001,-0.018127
3.513,56.2001,-0.015710
3.544,56.2001,-0.015710
3.575,56.2001,-0.016918
3.607,56.2001,-0.016918
3.638,56.2001,-0.014501
3.668,56.2001,-0.019335
3.699,56.2001,-0.022961
3.730,56.2001,-0.019335
3.750,56.2001,-0.019335
3.778,56.2001,-0.024169
3.798,56.2001,-0.019335
3.830,56.2001,-0.019335
3.854,56.2001,-0.018127
3.886,56.2001,-0.019335
3.917,56.2001,-0.019335
3.949,56.2001,-0.013293
3.979,56.2001,-0.014501
4.010,56.2001,-0.015710
4.042,56.2001,-0.016918
4.074,56.2001,-0.015710
4.105,56.2001,-0.018127
4.136,56.2001,-0.016918
4.168,56.2001,-0.016918
4.198,56.2001,-0.015710
4.230,56.2001,-0.013293
4.260,56.2001,-0.019335
4.292,56.2001,-0.014501
4.322,56.2001,-0.015710
4.353,56.2001,-0.018127
4.374,56.2001,-0.018127
4.399,56.2001,-0.019335
4.429,56.2001,-0.018127
4.460,56.2001,-0.016918
4.491,56.2001,-0.019335
4.521,56.2001,-0.019335
4.552,56.2001,-0.021752
4.583,56.2001,-0.021752
4.615,56.2001,-0.019335
4.647,56.2001,-0.016918
4.679,56.2001,-0.020544
4.710,56.2001,-0.018127
4.741,56.2001,-0.014501
4.773,56.2001,-0.014501
4.803,56.2001,-0.014501
4.834,56.2001,-0.018127
4.854,56.2001,-0.018127
4.881,56.2001,-0.015710
4.901,56.2001,-0.015710
4.928,56.2001,-0.016918
4.959,56.2001,-0.016918
4.990,56.2001,-0.016918
5.021,56.2001,-0.018127
5.053,56.2001,-0.018127
5.084,56.2001,-0.019335
5.115,56.2001,-0.015710
5.146,56.2001,-0.019335
5.177,56.2001,-0.021752
5.209,56.2001,-0.018127
5.240,56.2001,-0.018127
5.271,56.2001,-0.019335
5.303,56.2001,-0.019335
5.334,56.2001,-0.020544
5.365,56.2001,-0.018127
5.397,56.2001,-0.019335
5.427,56.2001,-0.020544
5.457,56.2001,-0.012084
5.488,56.2001,-0.013293
5.510,56.2001,-0.013293
5.535,56.2001,-0.018127
5.567,56.2001,-0.016918
5.597,56.2001,-0.016918
5.628,56.2001,-0.021752
5.660,56.2001,-0.021752
5.690,56.2001,-0.015710
5.722,56.2001,-0.015710
5.753,56.2001,-0.014501
5.784,56.2001,-0.014501
5.816,56.2001,-0.016918
5.847,56.2001,-0.019335
5.878,56.2001,-0.014501
5.910,56.2001,-0.020544
5.941,56.2001,-0.020544
5.971,56.2001,-0.021752
6.003,56.2001,-0.021752
6.033,56.2001,-0.015710
6.067,56.2001,-0.018127
6.096,56.2001,-0.019335
6.128,56.2001,-0.014501
6.159,56.2001,-0.014501
6.191,56.2001,-0.016918
6.211,56.2001,-0.016918
6.238,56.2001,-0.019335
6.259,56.2001,-0.019335
6.284,56.2001,-0.019335
6.316,56.2001,-0.018127
6.347,56.2001,-0.018127
6.377,56.2001,-0.016918
6.408,56.2001,-0.014501
6.439,56.2001,-0.012084
6.470,56.2001,-0.014501
6.500,56.2001,-0.015710
6.531,56.2001,-0.020544
6.563,56.2001,-0.022961
6.594,56.2001,-0.019335
6.625,56.2001,-0.016918
6.657,56.2001,-0.014501
6.688,56.2001,-0.018127
6.709,56.2001,-0.018127
6.734,56.2001,-0.015710
6.755,56.2001,-0.015710
6.781,56.2001,-0.016918
6.812,56.2001,-0.018127
6.843,56.2001,-0.015710
6.874,56.2001,-0.014501
6.905,56.2001,-0.015710
6.936,56.2001,-0.018127
6.967,56.2001,-0.015710
6.998,56.2001,-0.016918
7.028,56.2001,-0.018127
7.059,56.2001,-0.018127
7.090,56.2001,-0.016918
7.122,56.2001,-0.016918
7.154,56.2001,-0.016918
7.185,56.2001,-0.016918
7.216,56.2001,-0.016918
7.248,56.2001,-0.016918
7.278,56.2001,-0.013293
7.298,56.2001,-0.016918
7.325,56.2001,-0.016918
7.357,56.2001,-0.024169
7.388,56.2001,-0.012084
7.417,56.2001,-0.010876
7.449,56.2001,-0.012084
7.480,56.2001,-0.015710
7.512,56.2001,-0.016918
7.542,56.2001,-0.018127
7.573,56.2001,-0.019335
7.604,56.2001,-0.019335
7.636,56.2001,-0.019335
7.666,56.2001,-0.015710
7.698,56.2001,-0.016918
7.729,56.2001,-0.015710
7.760,56.2001,-0.014501
7.792,56.2001,-0.016918
7.822,56.2001,-0.019335
7.842,56.2001,-0.021752
7.869,56.2001,-0.019335
7.899,56.2001,-0.015710
7.932,56.2001,-0.018127
7.962,56.2001,-0.018127
7.993,56.2001,-0.015710
8.024,56.2001,-0.014501
8.055,56.2001,-0.016918
8.086,56.2001,-0.018127
8.107,56.2001,-0.016918
8.132,56.2001,-0.014501
8.164,56.2001,-0.014501
8.195,56.2001,-0.014501
8.226,56.2001,-0.018127
8.258,56.2001,-0.015710
8.289,56.2001,-0.015710
8.319,56.2001,-0.015710
8.351,56.2001,-0.018127
8.381,56.2001,-0.019335
8.413,56.2001,-0.016918
8.444,56.2001,-0.016918
8.476,56.2001,-0.015710
8.505,56.2001,-0.015710
8.537,56.2001,-0.013293
8.569,56.2001,-0.014501
8.600,56.2001,-0.016918
8.631,56.2001,-0.015710
8.651,56.2001,-0.015710
8.677,56.2001,-0.012084
8.708,56.2001,-0.018127
8.739,56.2001,-0.015710
8.771,56.2001,-0.015710
8.801,56.2001,-0.016918
8.832,56.2001,-0.018127
8.864,56.2001,-0.016918
8.895,56.2001,-0.015710
8.927,56.2001,-0.014501
8.960,56.2001,-0.019335
8.990,56.2001,-0.015710
9.021,56.2001,-0.015710
9.052,56.2001,-0.018127
9.082,56.2001,-0.018127
9.113,56.2001,-0.018127
9.144,56.2001,-0.018127
9.176,56.2001,-0.025377
9.207,56.2001,-0.016918
9.238,56.2001,-0.019335
9.259,56.2001,-0.016918
9.284,56.2001,-0.016918
9.315,56.2001,-0.010876
9.346,56.2001,-0.016918
9.378,56.2001,-0.015710
9.409,56.2001,-0.020544
9.440,56.2001,-0.018127
9.471,56.2001,-0.010876
9.503,56.2001,-0.014501
9.533,56.2001,-0.018127
9.564,56.2001,-0.018127
9.595,56.2001,-0.018127
9.626,56.2001,-0.015710
9.657,56.2001,-0.013293
9.688,56.2001,-0.013293
9.719,56.2001,-0.016918
9.751,56.2001,-0.019335
9.782,56.2001,-0.015710
9.802,56.2001,-0.015710
9.827,56.2001,-0.012084
9.858,56.2001,-0.013293
9.889,56.2001,-0.018127
9.927,56.2001,-0.016918
9.953,56.2001,-0.016918
9.985,56.2001,-0.015710
10.013,56.2001,-0.014501
10.045,56.2001,-0.014501
10.076,56.2001,-0.015710
10.107,56.2001,-0.021752
10.139,56.2001,-0.016918
10.169,56.2001,-0.020544
10.201,56.2001,-0.016918
10.232,56.2001,-0.018127
10.262,56.2001,-0.016918
10.282,56.2001,-0.016918
10.305,56.2001,-0.018127
10.339,56.2001,-0.018127
10.370,56.2001,-0.016918
10.400,56.2001,-0.013293
10.431,56.2001,-0.016918
10.462,56.2001,-0.016918
10.494,56.2001,-0.014501
10.525,56.2001,-0.013293
10.556,56.2001,-0.019335
10.576,56.2001,-0.015710
10.604,56.2001,-0.012084
10.625,56.2001,-0.014501
10.648,56.2001,-0.020544
10.681,56.2001,-0.022961
10.711,56.2001,-0.014501
10.742,56.2001,-0.013293
10.773,56.2001,-0.015710
10.806,56.2001,-0.016918
10.832,56.2001,-0.014501
10.867,56.2001,-0.010876
10.898,56.2001,-0.013293
10.929,56.2001,-0.016918
10.960,56.2001,-0.015710
10.991,56.2001,-0.015710
11.022,56.2001,-0.014501
11.053,56.2001,-0.014501
11.085,56.2001,-0.014501
11.114,56.1835,-0.012084
11.135,56.1220,0.003625
11.161,56.0427,-0.002417
11.192,55.9467,0.007251
11.215,55.8811,0.007251
11.239,55.8091,0.018127
11.271,55.7148,0.027794
11.301,55.6209,0.033837
11.333,55.5279,0.049546
11.358,55.4532,0.049546
11.379,55.3885,0.066465
11.409,55.2961,0.076132
11.441,55.2033,0.084591
11.473,55.1065,0.095467
11.502,55.0162,0.105135
11.533,54.9282,0.135346
11.564,54.8362,0.147431
11.596,54.7371,0.160724
11.627,54.6466,0.172808
11.658,54.5515,0.186101
11.689,54.4603,0.200602
11.709,54.3988,0.210270
11.735,54.3202,0.213895
11.757,54.2559,0.213895
11.781,54.1836,0.217521
11.811,54.0928,0.217521
11.843,53.9958,0.215104
11.873,53.9064,0.192143
11.894,53.8432,0.178850
11.920,53.7649,0.178850
11.951,53.6721,0.157098
11.982,53.5776,0.031420
12.014,53.4846,0.003625
12.044,53.3928,0.004834
12.075,53.3002,0.001208
12.106,53.2057,0.006042
12.138,53.1114,0.006042
12.170,53.0154,0.006042
12.202,52.9215,0.002417
12.233,52.8259,0.002417
12.265,52.7329,0.002417
12.295,52.6408,0.004834
12.325,52.5502,0.001208
12.356,52.4578,0.001208
12.388,52.3608,-0.001208
12.419,52.2691,0.002417
12.451,52.1737,0.006042
12.481,52.0830,0.004834
12.503,52.0164,0.004834
12.528,51.9418,-0.002417
12.559,51.8497,0.001208
12.590,51.7540,0.000000
12.621,51.6618,0.003625
12.652,51.5677,0.002417
12.683,51.4768,0.002417
12.714,51.3814,0.000000
12.746,51.2890,-0.003625
12.777,51.1918,-0.003625
12.809,51.0996,-0.001208
12.840,51.0036,0.002417
12.871,50.9122,0.004834
12.903,50.8156,0.007251
12.934,50.7237,0.000000
12.965,50.6332,0.000000
12.996,50.5393,-0.002417
13.027,50.4454,-0.003625
13.058,50.3488,0.000000
13.090,50.2573,0.006042
13.122,50.1615,0.004834
13.151,50.1501,-0.001208
13.184,50.1501,-0.020544
13.215,50.1501,0.003625
13.246,50.1501,0.003625
13.276,50.1501,0.003625
13.306,50.1501,0.001208
13.336,50.1501,0.002417
13.368,50.1501,0.003625
13.399,50.1501,0.001208
13.431,50.1501,0.008459
13.462,50.1501,0.001208
13.493,50.1501,-0.002417
13.524,50.1501,-0.002417
13.555,50.1501,0.000000
13.586,50.1501,0.000000
13.606,50.1501,-0.001208
13.632,50.1501,0.001208
13.654,50.1501,0.001208
13.678,50.1501,0.002417
13.709,50.1501,0.001208
13.740,50.1501,0.001208
13.771,50.2276,-0.001208
13.801,50.3189,-0.015710
13.832,50.4116,-0.004834
13.863,50.5046,-0.002417
13.893,50.5972,0.000000
13.924,50.6870,-0.002417
13.955,50.7811,-0.002417
13.987,50.8775,0.002417
14.019,50.9723,0.000000
14.047,51.0583,0.000000
14.080,51.1543,0.001208
14.111,51.2488,0.001208
14.141,51.3374,0.000000
14.172,51.4304,-0.002417
14.203,51.5267,-0.002417
14.235,51.6203,0.003625
14.265,51.7102,0.000000
14.286,51.7742,-0.002417
14.311,51.8480,-0.002417
14.342,51.9419,0.002417
14.372,52.0309,0.003625
14.404,52.1282,0.002417
14.434,52.2172,0.001208
14.469,52.3231,0.001208
14.497,52.4066,-0.001208
14.529,52.5028,-0.001208
14.560,52.5950,0.000000
14.592,52.6900,0.001208
14.622,52.7809,0.001208
14.655,52.8785,0.001208
14.686,52.9733,0.001208
14.716,53.0636,-0.002417
14.747,53.1568,0.000000
14.778,53.2498,0.001208
14.809,53.3416,-0.003625
14.830,53.4071,-0.004834
14.856,53.4830,-0.004834
14.887,53.5784,-0.002417
14.919,53.6740,0.000000
14.949,53.7607,0.001208
14.980,53.8549,0.003625
15.011,53.9476,0.002417
15.042,54.0400,0.001208
15.073,54.1340,-0.003625
15.104,54.2266,0.002417
15.127,54.2962,0.001208
15.150,54.3664,-0.004834
15.181,54.4582,-0.004834
15.211,54.5495,0.001208
15.244,54.6478,-0.001208
15.273,54.7328,-0.004834
15.304,54.8258,-0.004834
15.335,54.9212,-0.003625
15.366,55.0157,-0.008459
15.397,55.1062,-0.007251
15.428,55.1986,-0.004834
15.460,55.2935,-0.009668
15.490,55.3859,-0.012084
15.521,55.4813,-0.009668
15.542,55.5397,-0.012084
15.569,55.6225,-0.012084
15.590,55.6832,-0.016918
15.615,55.7585,-0.020544
15.646,55.8526,-0.020544
15.678,55.9501,-0.021752
15.707,56.0380,-0.029003
15.738,56.1289,-0.036253
15.762,56.1501,-0.036253
15.784,56.1501,-0.024169
15.816,56.1501,-0.036253
15.847,56.1501,-0.035045
15.878,56.1501,-0.033837
15.909,56.1501,-0.035045
15.941,56.1501,-0.032628
15.972,56.1501,-0.033837
16.003,56.1501,-0.033837
16.034,56.1501,-0.031420
16.055,56.1501,-0.031420
16.080,56.1501,-0.032628
16.102,56.1501,-0.035045
16.126,56.1501,-0.031420
16.157,56.1501,-0.029003
16.178,56.1501,-0.033837
16.203,56.1501,-0.033837
16.235,56.1501,-0.030211
16.266,56.1501,-0.024169
16.298,56.1501,-0.026586
16.329,56.1501,-0.022961
16.360,56.1501,-0.024169
16.392,56.1501,-0.029003
16.423,56.1501,-0.025377
16.453,56.1501,-0.024169
16.484,56.1501,-0.024169
16.516,56.1501,-0.027794
16.547,56.1501,-0.026586
16.577,56.1501,-0.027794
16.608,56.1501,-0.024169
16.638,56.1501,-0.025377
16.659,56.1501,-0.026586
16.685,56.1501,-0.022961
16.705,56.1501,-0.024169
16.732,56.1501,-0.020544
16.753,56.1501,-0.020544
16.779,56.1501,-0.024169
16.810,56.1501,-0.025377
16.841,56.1501,-0.027794
16.872,56.1501,-0.020544
16.904,56.1501,-0.026586
16.935,56.1501,-0.021752
16.965,56.1501,-0.020544
16.996,56.1501,-0.024169
17.028,56.1501,-0.024169
17.060,56.1501,-0.025377
17.091,56.1501,-0.022961
17.122,56.1501,-0.022961
17.154,56.1501,-0.022961
17.185,56.1501,-0.024169
17.217,56.1501,-0.024169
17.248,56.1501,-0.025377
17.279,56.1501,-0.020544
17.310,56.1501,-0.020544
17.340,56.1501,-0.020544
17.361,56.1501,-0.020544
17.387,56.1501,-0.020544
17.418,56.1501,-0.019335
17.448,56.1501,-0.022961
17.479,56.1501,-0.027794
17.510,56.1501,-0.022961
17.541,56.1501,-0.020544
17.572,56.1501,-0.020544
17.605,56.1501,-0.022961
17.635,56.1501,-0.021752
17.667,56.1501,-0.024169
17.697,56.1501,-0.022961
17.729,56.1501,-0.018127
17.759,56.1501,-0.020544
17.790,56.1501,-0.019335
17.822,56.1501,-0.021752
17.853,56.1501,-0.021752
17.884,56.1501,-0.019335
17.905,56.1501,-0.019335
17.930,56.1501,-0.025377
17.961,56.1501,-0.026586
17.991,56.1501,-0.024169
18.022,56.1501,-0.025377
18.053,56.1501,-0.018127
18.084,56.1501,-0.016918
18.115,56.1501,-0.018127
18.147,56.1501,-0.019335
18.178,56.1501,-0.021752
18.210,56.1501,-0.022961
18.241,56.1501,-0.021752
18.271,56.1501,-0.021752
18.304,56.1501,-0.019335
18.335,56.1501,-0.015710
18.365,56.1501,-0.021752
18.398,56.1501,-0.022961
18.427,56.1501,-0.021752
18.458,56.1501,-0.021752
18.489,56.1501,-0.014501
18.521,56.1501,-0.018127
18.551,56.1501,-0.019335
18.582,56.1501,-0.018127
18.612,56.1501,-0.016918
18.643,56.1501,-0.015710
18.675,56.1501,-0.019335
18.706,56.1501,-0.018127
18.737,56.1501,-0.020544
18.767,56.1501,-0.021752
18.798,56.1501,-0.020544
18.829,56.1501,-0.022961
18.860,56.1501,-0.022961
18.891,56.1501,-0.020544
18.912,56.1501,-0.020544
18.937,56.1501,-0.020544
18.969,56.1501,-0.020544
19.000,56.1501,-0.022961
19.032,56.1501,-0.014501
19.062,56.1501,-0.016918
19.094,56.1501,-0.024169
19.126,56.1501,-0.021752
19.156,56.1501,-0.018127
19.188,56.1501,-0.018127
19.218,56.1501,-0.020544
19.249,56.1501,-0.016918
19.281,56.1501,-0.016918
19.311,56.1501,-0.016918
19.343,56.1501,-0.018127
19.373,56.1501,-0.016918
19.405,56.1501,-0.019335
19.436,56.1501,-0.021752
19.468,56.1501,-0.020544
19.488,56.1501,-0.019335
19.514,56.1501,-0.018127
19.545,56.1501,-0.020544
19.575,56.1501,-0.021752
19.606,56.1501,-0.016918
19.637,56.1501,-0.020544
19.668,56.1501,-0.022961
19.699,56.1501,-0.021752
19.731,56.1501,-0.019335
19.754,56.1501,-0.019335
19.776,56.1501,-0.018127
19.809,56.1501,-0.018127
19.840,56.1501,-0.019335
19.870,56.1501,-0.018127
19.902,56.1501,-0.019335
19.933,56.1501,-0.018127
19.963,56.1501,-0.012084
19.984,56.1501,-0.016918
20.010,56.1501,-0.016918
20.041,56.1501,-0.016918
20.073,56.1501,-0.019335
20.105,56.1501,-0.014501
20.135,56.1501,-0.019335
20.167,56.1501,-0.020544
20.198,56.1501,-0.022961
20.229,56.1501,-0.020544
20.260,56.1501,-0.018127
20.292,56.1501,-0.020544
20.324,56.1501,-0.019335
20.354,56.1501,-0.018127
20.386,56.1501,-0.019335
20.418,56.1501,-0.016918
20.449,56.1501,-0.016918
20.479,56.1501,-0.019335
20.510,56.1501,-0.020544
20.541,56.1501,-0.014501
20.572,56.1501,-0.016918
20.603,56.1501,-0.021752
20.634,56.1501,-0.014501
20.655,56.1501,-0.013293
20.682,56.1501,-0.015710
20.703,56.1501,-0.014501
20.728,56.1501,-0.016918
20.759,56.1501,-0.019335
20.789,56.1501,-0.016918
20.819,56.1501,-0.015710
20.850,56.1501,-0.016918
20.881,56.1501,-0.014501
20.912,56.1501,-0.019335
20.942,56.1501,-0.019335
20.973,56.1501,-0.018127
21.004,56.1501,-0.018127
21.034,56.1501,-0.015710
21.055,56.1501,-0.014501
21.082,56.1501,-0.018127
21.112,56.1501,-0.016918
21.145,56.1501,-0.015710
21.175,56.1501,-0.015710
21.205,56.1501,-0.018127
21.237,56.1501,-0.015710
21.268,56.1501,-0.015710
21.300,56.1501,-0.015710
21.331,56.1501,-0.018127
21.362,56.1501,-0.019335
21.393,56.1501,-0.020544
21.424,56.1501,-0.020544
21.457,56.1501,-0.013293
21.488,56.1501,-0.013293
21.519,56.1501,-0.016918
21.551,56.1501,-0.014501
21.582,56.1501,-0.014501
21.613,56.1501,-0.019335
21.644,56.1501,-0.015710
21.676,56.1501,-0.013293
21.706,56.1501,-0.013293
21.727,56.1501,-0.013293
21.752,56.1501,-0.016918
21.783,56.1501,-0.015710
21.815,56.1501,-0.013293
21.846,56.1501,-0.013293
21.876,56.1501,-0.014501
21.907,56.1501,-0.018127
21.938,56.1501,-0.019335
21.969,56.1501,-0.019335
22.000,56.1501,-0.016918
22.030,56.1501,-0.016918
22.061,56.1501,-0.018127
22.092,56.1501,-0.024169
22.124,56.1501,-0.021752
22.155,56.1501,-0.015710
22.175,56.1501,-0.019335
22.201,56.1501,-0.022961
22.222,56.1501,-0.022961
22.247,56.1501,-0.020544
22.278,56.1501,-0.020544
22.309,56.1501,-0.019335
22.339,56.1501,-0.018127
22.370,56.1501,-0.016918
22.403,56.1501,-0.013293
22.433,56.1501,-0.020544
22.465,56.1501,-0.020544
22.496,56.1501,-0.015710
22.526,56.1501,-0.015710
22.557,56.1501,-0.015710
22.589,56.1501,-0.018127
22.621,56.1501,-0.015710
22.653,56.1501,-0.018127
22.684,56.1501,-0.019335
22.715,56.1501,-0.014501
22.745,56.1501,-0.018127
22.767,56.1501,-0.018127
22.792,56.1501,-0.019335
22.823,56.1501,-0.015710
22.854,56.1501,-0.018127
22.886,56.1501,-0.018127
22.916,56.1501,-0.016918
22.948,56.1501,-0.015710
22.979,56.1501,-0.015710
23.010,56.1501,-0.019335
23.042,56.1501,-0.016918
23.073,56.1501,-0.016918
23.104,56.1501,-0.016918
23.136,56.1501,-0.018127
23.166,56.1501,-0.019335
23.203,56.1501,-0.018127
23.229,56.1501,-0.019335
23.260,56.1501,-0.019335
23.292,56.1501,-0.015710
23.315,56.1501,-0.015710
23.339,56.1501,-0.013293
23.370,56.1501,-0.019335
23.401,56.1501,-0.014501
23.432,56.1501,-0.018127
23.462,56.1501,-0.013293
23.493,56.1501,-0.015710
23.524,56.1501,-0.016918
23.555,56.1501,-0.015710
23.587,56.1501,-0.013293
23.618,56.1501,-0.015710
23.651,56.1501,-0.015710
23.681,56.1501,-0.016918
23.701,56.1501,-0.018127
23.728,56.1501,-0.016918
23.759,56.1501,-0.018127
23.790,56.1501,-0.021752
23.811,56.1501,-0.021752
23.837,56.1501,-0.020544
23.867,56.1501,-0.014501
23.898,56.1501,-0.016918
23.930,56.1501,-0.018127
23.960,56.1501,-0.018127
23.992,56.1501,-0.018127
24.022,56.1501,-0.018127
24.054,56.1501,-0.015710
24.085,56.1501,-0.015710
24.117,56.1501,-0.015710
24.148,56.1501,-0.015710
24.178,56.1501,-0.019335
24.210,56.1501,-0.015710
24.230,56.1501,-0.015710
24.255,56.1501,-0.016918
24.286,56.1501,-0.018127
