Elapsed Time (s),Position (mm),Force (N)
-0.010,78.1515,-0.028663
0.101,78.1515,-0.028663
0.209,78.1515,-0.026627
0.317,78.1515,-0.026627
0.426,78.1515,-0.025090
0.536,78.1515,-0.025090
0.645,78.1515,-0.025090
0.755,78.1515,-0.023809
0.864,78.1515,-0.023809
0.971,78.1515,-0.022791
1.082,78.1515,-0.022791
1.190,78.1515,-0.021961
1.300,78.1515,-0.021961
1.410,78.1515,-0.021961
1.518,78.1515,-0.021217
1.627,78.1515,-0.021217
1.737,78.1515,-0.020566
1.847,78.1515,-0.020566
1.956,78.1515,-0.019972
2.066,78.1515,-0.019972
2.176,78.1515,-0.019972
2.283,78.1515,-0.019435
2.393,78.1515,-0.019435
2.501,78.1515,-0.018973
2.611,78.1515,-0.018973
2.720,78.1515,-0.018559
2.829,78.1515,-0.018559
2.939,78.1515,-0.018172
3.049,78.1515,-0.018172
3.159,78.1515,-0.018172
3.270,78.1515,-0.017786
3.378,78.1515,-0.017786
3.489,78.1515,-0.017550
3.598,78.1515,-0.017550
3.709,78.1515,-0.017937
3.818,78.1515,-0.017937
3.929,78.1515,-0.018568
4.038,78.1514,-0.018568
4.147,78.1456,-0.018568
4.257,78.1305,-0.018530
4.365,78.1093,-0.018530
4.474,78.0875,-0.010896
4.584,78.0657,-0.010896
4.693,78.0439,0.009699
4.801,78.0222,0.009699
4.911,78.0003,0.009699
5.018,77.9787,0.038041
5.129,77.9567,0.038041
5.240,77.9345,0.070474
5.348,77.9126,0.070474
5.458,77.8908,0.107148
5.566,77.8691,0.107148
5.674,77.8477,0.107148
5.782,77.8259,0.148054
5.891,77.8040,0.148054
6.001,77.7822,0.193428
6.109,77.7605,0.193428
6.218,77.7388,0.193428
6.327,77.7171,0.243326
6.436,77.6951,0.297682
6.546,77.6733,0.297682
6.655,77.6514,0.297682
6.764,77.6295,0.356827
6.872,77.6078,0.356827
6.981,77.5862,0.420872
7.089,77.5645,0.420872
7.198,77.5428,0.489084
7.309,77.5206,0.489084
7.417,77.4991,0.489084
7.525,77.4773,0.561198
7.633,77.4557,0.561198
7.741,77.4342,0.637562
7.851,77.4122,0.637562
7.960,77.3905,0.718602
8.069,77.3687,0.718602
8.179,77.3465,0.718602
8.288,77.3248,0.804270
8.397,77.3031,0.804270
8.505,77.2815,0.893990
8.615,77.2594,0.893990
8.723,77.2380,0.987980
8.832,77.2159,0.987980
8.941,77.1942,0.987980
9.051,77.1722,1.086306
9.160,77.1505,1.086306
9.266,77.1292,1.189580
9.377,77.1070,1.189580
9.485,77.0854,1.298047
9.595,77.0636,1.298047
9.705,77.0414,1.378955
9.815,77.0193,1.378955
9.925,76.9973,1.378955
10.034,76.9755,0.706943
10.143,76.9539,0.706943
10.251,76.9321,0.008153
10.360,76.9105,0.008153
10.469,76.8886,0.006720
10.579,76.8667,0.006720
10.687,76.8448,0.006447
10.797,76.8231,0.006447
10.906,76.8013,0.006447
11.014,76.7796,0.006315
11.124,76.7576,0.006315
11.235,76.7353,0.006192
11.344,76.7137,0.006192
11.452,76.6919,0.006192
11.559,76.6705,0.006061
11.665,76.6492,0.006061
11.775,76.6274,0.005957
11.883,76.6059,0.005957
11.992,76.5839,0.005910
12.101,76.5621,0.005910
12.210,76.5403,0.005768
12.319,76.5186,0.005768
12.428,76.4967,0.005768
12.537,76.4751,0.005665
12.646,76.4533,0.005665
12.754,76.4317,0.005514
12.863,76.4098,0.005514
12.971,76.3880,0.005391
13.081,76.3663,0.005391
13.188,76.3449,0.005391
13.298,76.3228,0.005391
13.409,76.3007,0.005391
13.519,76.2786,0.005316
13.630,76.2564,0.005316
13.738,76.2344,0.005269
13.848,76.2129,0.005269
13.958,76.1907,0.005137
14.069,76.1685,0.005137
14.180,76.1465,0.005137
14.288,76.1248,0.005043
14.398,76.1030,0.005043
14.507,76.0811,0.004958
14.616,76.0591,0.004958
14.725,76.0375,0.004892
14.834,76.0156,0.004892
14.943,75.9940,0.004854
15.053,75.9719,0.004854
15.160,75.9505,0.004854
15.269,75.9286,0.004750
15.378,75.9069,0.004750
15.487,75.8852,0.004713
15.596,75.8632,0.004713
15.705,75.8414,0.004713
15.814,75.8197,0.004666
15.925,75.7974,0.004666
16.035,75.7755,0.004600
16.143,75.7538,0.004600
16.251,75.7322,0.004543
16.361,75.7102,0.004543
16.468,75.6887,0.004458
16.578,75.6668,0.004458
16.688,75.6449,0.004449
16.797,75.6232,0.004449
16.907,75.6011,0.004449
17.017,75.5789,0.004430
17.127,75.5571,0.004430
17.237,75.5350,0.004392
17.347,75.5130,0.004392
17.455,75.4912,0.004355
17.564,75.4696,0.004355
17.675,75.4475,0.004355
17.784,75.4256,0.004317
17.893,75.4036,0.004317
18.003,75.3819,0.004279
18.113,75.3597,0.004279
18.223,75.3379,0.004204
18.332,75.3161,0.004204
18.440,75.2944,0.004204
18.547,75.2730,0.004223
18.657,75.2511,0.004223
18.764,75.2295,0.004270
18.873,75.2078,0.004270
18.984,75.1857,0.004232
19.094,75.1638,0.004232
19.201,75.1423,0.004204
19.311,75.1207,0.004204
19.420,75.1067,0.004204
19.530,75.1015,0.004138
19.639,75.1015,0.004138
19.748,75.1052,0.004034
19.857,75.1180,0.004034
19.966,75.1386,0.003893
20.074,75.1604,0.003893
20.184,75.1823,0.003817
20.293,75.2041,0.003817
20.401,75.2257,0.003817
20.511,75.2475,0.003827
20.619,75.2693,0.003827
20.729,75.2912,0.003780
20.837,75.3130,0.003780
20.948,75.3349,0.003798
21.056,75.3566,0.003798
21.164,75.3782,0.003798
21.273,75.4000,0.003742
21.383,75.4219,0.003742
21.491,75.4436,0.003676
21.599,75.4653,0.003676
21.709,75.4872,0.003666
21.818,75.5092,0.003666
21.930,75.5314,0.003619
22.040,75.5533,0.003619
22.147,75.5748,0.003619
22.256,75.5966,0.003591
22.366,75.6187,0.003591
22.475,75.6404,0.003525
22.584,75.6624,0.003525
22.695,75.6843,0.003431
22.805,75.7063,0.003431
22.914,75.7282,0.003431
23.023,75.7500,0.003450
23.131,75.7716,0.003450
23.240,75.7935,0.003450
23.349,75.8152,0.003450
23.458,75.8371,0.003440
23.567,75.8588,0.003440
23.677,75.8808,0.003440
23.784,75.9023,0.003393
23.894,75.9243,0.003393
24.003,75.9461,0.003337
24.114,75.9682,0.003337
24.222,75.9898,0.003346
24.331,76.0115,0.003346
24.440,76.0336,0.003365
24.551,76.0555,0.003365
24.663,76.0780,0.003365
24.768,76.0990,0.003318
24.877,76.1207,0.003318
24.987,76.1428,0.003318
25.095,76.1645,0.003261
25.204,76.1862,0.003261
25.314,76.2081,0.003261
25.424,76.2300,0.003261
25.533,76.2522,0.003223
25.642,76.2738,0.003223
25.751,76.2956,0.003205
25.860,76.3175,0.003205
25.968,76.3392,0.003205
26.078,76.3609,0.003167
26.188,76.3831,0.003158
26.297,76.4049,0.003158
26.405,76.4263,0.003158
26.513,76.4482,0.003101
26.624,76.4702,0.003101
26.732,76.4918,0.003073
26.841,76.5138,0.003073
26.951,76.5356,0.003082
27.061,76.5576,0.003082
27.171,76.5796,0.003082
27.280,76.6016,0.003007
27.389,76.6232,0.003007
27.497,76.6447,0.003007
27.606,76.6666,0.003007
27.715,76.6883,0.003054
27.826,76.7106,0.003054
27.934,76.7322,0.003054
28.043,76.7540,0.003073
28.152,76.7760,0.003073
28.260,76.7974,0.003054
28.370,76.8194,0.003054
28.478,76.8410,0.003016
28.588,76.8632,0.003016
28.697,76.8846,0.003035
28.808,76.9069,0.003035
28.918,76.9290,0.003035
29.027,76.9507,0.003016
29.137,76.9727,0.003016
29.246,76.9947,0.002997
29.356,77.0164,0.002997
29.463,77.0382,0.002969
29.571,77.0596,0.002969
29.682,77.0817,0.002988
29.792,77.1039,0.002988
29.899,77.1252,0.002988
30.009,77.1472,0.003073
30.117,77.1689,0.003073
30.227,77.1907,0.003035
30.336,77.2128,0.003035
30.445,77.2344,0.003035
30.555,77.2563,0.003035
30.664,77.2783,0.003035
30.773,77.3001,0.003063
30.882,77.3219,0.003063
30.991,77.3436,0.003016
31.101,77.3654,0.003016
31.211,77.3876,0.003007
31.318,77.4090,0.003007
31.427,77.4308,0.003007
31.536,77.4525,0.002988
31.644,77.4742,0.002988
31.754,77.4962,0.002978
31.864,77.5180,0.002978
31.973,77.5399,0.002846
32.082,77.5618,0.002846
32.191,77.5837,0.002611
32.301,77.6054,0.002611
32.410,77.6273,0.002611
32.518,77.6491,0.002356
32.628,77.6709,0.002356
32.737,77.6927,0.001970
32.847,77.7146,0.001970
32.955,77.7365,0.001386
33.065,77.7582,0.001386
33.172,77.7798,0.001386
33.281,77.8016,0.000443
33.390,77.8233,0.000443
33.499,77.8452,-0.001018
33.610,77.8672,-0.001018
33.719,77.8890,-0.003233
33.829,77.9110,-0.003233
33.938,77.9329,-0.003233
34.048,77.9549,-0.006456
34.158,77.9770,-0.006456
34.265,77.9983,-0.010877
34.372,78.0198,-0.010877
34.481,78.0417,-0.016598
34.591,78.0636,-0.016598
34.701,78.0845,-0.016598
34.811,78.0976,-0.023460
34.919,78.1015,-0.023460
35.026,78.1015,-0.029615
35.135,78.1015,-0.029615
35.245,78.1015,-0.030793
35.354,78.1015,-0.030793
35.464,78.1015,-0.028304
35.572,78.1015,-0.028304
35.681,78.1015,-0.026240
35.790,78.1015,-0.026240
35.900,78.1015,-0.026240
36.010,78.1015,-0.024647
36.118,78.1015,-0.024647
36.228,78.1015,-0.023384
36.337,78.1015,-0.023384
36.446,78.1015,-0.022366
36.555,78.1015,-0.022366
36.665,78.1015,-0.022366
36.772,78.1015,-0.021546
36.880,78.1015,-0.021546
36.989,78.1015,-0.020764
37.100,78.1015,-0.020764
37.210,78.1015,-0.020048
37.319,78.1015,-0.020048
37.426,78.1015,-0.020048
37.536,78.1015,-0.019520
37.645,78.1015,-0.019520
37.756,78.1015,-0.019002
37.866,78.1015,-0.019002
37.973,78.1015,-0.018483
38.082,78.1015,-0.018483
38.191,78.1015,-0.018031
38.301,78.1015,-0.018031
38.411,78.1015,-0.018031
38.521,78.1015,-0.017644
38.629,78.1015,-0.017644
38.739,78.1015,-0.017305
38.847,78.1015,-0.017305
38.957,78.1015,-0.017305
39.067,78.1015,-0.017305
39.175,78.1015,-0.017305
39.285,78.1015,-0.017927
39.394,78.1015,-0.017927
39.504,78.0976,-0.018408
39.614,78.0849,-0.018408
39.724,78.0639,-0.016080
39.833,78.0420,-0.016080
39.941,78.0207,-0.002196
40.050,77.9987,-0.002196
40.158,77.9773,-0.002196
40.269,77.9549,0.023450
40.379,77.9330,0.023450
40.490,77.9108,0.053781
40.598,77.8891,0.053781
40.710,77.8666,0.088222
40.818,77.8452,0.088222
40.928,77.8232,0.088222
41.036,77.8016,0.126941
41.146,77.7796,0.126941
41.255,77.7577,0.170081
41.363,77.7362,0.170081
41.472,77.7143,0.217755
41.581,77.6925,0.217755
41.690,77.6707,0.269944
41.799,77.6491,0.269944
41.908,77.6271,0.269944
42.018,77.6052,0.326948
42.126,77.5836,0.326948
42.236,77.5617,0.388628
42.345,77.5398,0.388628
42.453,77.5180,0.454446
42.563,77.4960,0.454446
42.672,77.4743,0.454446
42.781,77.4526,0.524326
42.892,77.4304,0.524326
43.001,77.4084,0.598438
43.110,77.3868,0.598438
43.220,77.3648,0.677488
43.327,77.3432,0.677488
43.437,77.3214,0.760979
43.545,77.2997,0.760979
43.655,77.2779,0.760979
43.764,77.2559,0.848428
43.872,77.2344,0.848428
43.982,77.2124,0.939713
44.091,77.1906,0.939713
44.201,77.1687,1.032524
44.309,77.1470,1.032524
44.419,77.1251,1.032524
44.526,77.1035,1.059132
44.635,77.0818,1.059132
44.745,77.0596,0.526446
44.856,77.0378,0.526446
44.965,77.0157,0.010330
45.076,76.9937,0.010330
45.186,76.9717,0.006965
45.294,76.9500,0.006965
45.402,76.9284,0.006965
45.510,76.9067,0.006626
45.619,76.8851,0.006626
45.727,76.8633,0.006447
45.835,76.8417,0.006447
45.945,76.8199,0.006287
46.055,76.7977,0.006287
46.163,76.7763,0.006287
46.272,76.7544,0.006136
46.381,76.7327,0.006136
46.488,76.7112,0.006108
46.598,76.6893,0.006108
46.707,76.6676,0.006098
46.815,76.6459,0.006098
46.924,76.6238,0.006098
47.035,76.6020,0.005957
47.145,76.5799,0.005957
47.254,76.5579,0.005853
47.365,76.5360,0.005853
47.471,76.5145,0.005768
47.581,76.4926,0.005768
47.689,76.4710,0.005646
47.799,76.4489,0.005646
47.907,76.4275,0.005646
48.016,76.4056,0.005561
48.126,76.3836,0.005561
48.234,76.3621,0.005495
48.344,76.3401,0.005495
48.452,76.3184,0.005372
48.561,76.2965,0.005372
48.672,76.2744,0.005372
48.781,76.2526,0.005325
48.890,76.2308,0.005325
48.999,76.2091,0.005269
49.107,76.1872,0.005269
49.214,76.1661,0.005137
49.321,76.1447,0.005137
49.432,76.1222,0.005043
49.540,76.1007,0.005043
49.648,76.0792,0.005043
49.757,76.0575,0.004977
49.866,76.0354,0.004977
49.976,76.0137,0.004948
50.085,75.9918,0.004948
50.193,75.9703,0.004864
50.302,75.9484,0.004864
50.412,75.9263,0.004864
50.521,75.9047,0.004779
50.631,75.8827,0.004779
50.740,75.8608,0.004732
50.849,75.8390,0.004732
50.956,75.8178,0.004656
51.065,75.7959,0.004656
51.175,75.7740,0.004656
51.284,75.7520,0.004600
51.394,75.7300,0.004600
51.502,75.7085,0.004486
51.613,75.6862,0.004486
51.723,75.6643,0.004449
51.833,75.6423,0.004449
51.944,75.6202,0.004458
52.053,75.5982,0.004458
52.165,75.5759,0.004458
52.274,75.5541,0.004383
52.382,75.5324,0.004383
52.491,75.5106,0.004317
52.600,75.4890,0.004317
52.710,75.4669,0.004289
52.819,75.4449,0.004289
52.928,75.4232,0.004289
53.036,75.4014,0.004307
53.145,75.3798,0.004307
53.255,75.3579,0.004260
53.365,75.3359,0.004260
53.473,75.3142,0.004232
53.582,75.2924,0.004232
53.692,75.2704,0.004251
53.801,75.2485,0.004251
53.911,75.2268,0.004251
54.020,75.2050,0.004194
54.129,75.1830,0.004194
54.236,75.1617,0.004194
54.345,75.1398,0.004194
54.453,75.1183,0.004194
54.564,75.0961,0.004194
54.672,75.0744,0.004194
54.781,75.0587,0.004204
54.891,75.0518,0.004204
55.001,75.0515,0.004091
55.111,75.0515,0.004091
55.219,75.0515,0.004006
55.328,75.0515,0.004006
55.438,75.0515,0.004006
55.547,75.0560,0.004006
55.655,75.0694,0.004006
55.764,75.0902,0.003902
55.872,75.1122,0.003902
55.981,75.1338,0.003836
56.091,75.1556,0.003836
56.199,75.1772,0.003770
56.307,75.1990,0.003770
56.416,75.2210,0.003770
56.526,75.2427,0.003723
56.634,75.2642,0.003723
56.743,75.2862,0.003732
56.853,75.3083,0.003732
56.961,75.3297,0.003704
57.070,75.3516,0.003704
57.179,75.3735,0.003704
57.289,75.3953,0.003629
57.398,75.4170,0.003629
57.508,75.4392,0.003553
57.617,75.4608,0.003553
57.724,75.4825,0.003544
57.835,75.5045,0.003544
57.942,75.5259,0.003525
58.052,75.5479,0.003525
58.161,75.5698,0.003525
58.269,75.5912,0.003478
58.378,75.6131,0.003478
58.487,75.6348,0.003469
58.595,75.6567,0.003469
58.706,75.6787,0.003412
58.815,75.7004,0.003412
58.922,75.7219,0.003412
59.032,75.7440,0.003355
59.141,75.7657,0.003355
59.251,75.7876,0.003318
59.361,75.8096,0.003318
59.470,75.8315,0.003299
59.577,75.8529,0.003299
59.686,75.8748,0.003289
59.797,75.8969,0.003289
59.907,75.9190,0.003289
60.015,75.9405,0.003289
60.124,75.9622,0.003289
60.234,75.9843,0.003271
60.343,76.0060,0.003271
60.453,76.0281,0.003271
60.561,76.0497,0.003233
60.668,76.0710,0.003233
60.778,76.0932,0.003148
60.887,76.1148,0.003148
60.997,76.1370,0.003139
61.106,76.1586,0.003139
61.216,76.1808,0.003139
61.326,76.2026,0.003139
61.434,76.2243,0.003139
61.543,76.2461,0.003044
61.652,76.2678,0.003044
61.761,76.2898,0.003016
61.869,76.3114,0.003016
61.979,76.3332,0.003054
62.088,76.3552,0.003054
62.198,76.3771,0.003054
62.307,76.3989,0.003054
62.416,76.4206,0.003054
62.525,76.4423,0.002997
62.633,76.4643,0.002997
62.742,76.4859,0.002988
62.851,76.5077,0.002988
62.960,76.5295,0.002988
63.070,76.5515,0.002988
63.179,76.5732,0.002988
63.288,76.5950,0.002988
63.396,76.6167,0.002988
63.505,76.6384,0.002969
63.616,76.6606,0.002969
63.725,76.6825,0.002931
63.835,76.7044,0.002931
63.943,76.7260,0.002875
64.051,76.7476,0.002875
64.159,76.7691,0.002875
64.267,76.7908,0.002856
64.378,76.8130,0.002856
64.488,76.8350,0.002894
64.598,76.8571,0.002894
64.706,76.8788,0.002884
64.813,76.9001,0.002884
64.923,76.9222,0.002884
65.032,76.9439,0.002837
65.141,76.9655,0.002837
65.251,76.9877,0.002865
65.361,77.0096,0.002865
65.470,77.0315,0.002846
65.580,77.0534,0.002846
65.689,77.0752,0.002837
65.797,77.0969,0.002837
65.906,77.1185,0.002837
66.014,77.1402,0.002856
66.122,77.1619,0.002856
66.233,77.1841,0.002799
66.341,77.2057,0.002799
66.450,77.2275,0.002828
66.558,77.2492,0.002828
66.668,77.2709,0.002828
66.777,77.2929,0.002846
66.884,77.3142,0.002846
66.994,77.3363,0.002799
67.104,77.3581,0.002799
67.212,77.3798,0.002649
67.321,77.4015,0.002649
67.430,77.4234,0.002649
67.539,77.4453,0.002526
67.649,77.4671,0.002526
67.758,77.4891,0.002451
67.868,77.5111,0.002451
67.978,77.5330,0.002253
68.087,77.5548,0.002253
68.198,77.5772,0.002008
68.308,77.5991,0.002008
68.417,77.6208,0.002008
68.526,77.6426,0.001621
68.635,77.6646,0.001621
68.744,77.6862,0.000924
68.852,77.7080,0.000924
68.962,77.7298,-0.000113
69.071,77.7515,-0.000113
69.179,77.7732,-0.000113
69.288,77.7951,-0.001621
69.398,77.8170,-0.001621
69.506,77.8387,-0.003751
69.617,77.8608,-0.003751
69.725,77.8825,-0.006758
69.833,77.9040,-0.006758
69.943,77.9259,-0.010943
70.051,77.9476,-0.010943
70.161,77.9697,-0.010943
70.268,77.9911,-0.016297
70.377,78.0129,-0.016297
70.486,78.0338,-0.022923
70.594,78.0471,-0.022923
70.702,78.0515,-0.029596
70.810,78.0515,-0.029596
70.917,78.0515,-0.029596
71.027,78.0515,-0.031528
71.136,78.0515,-0.031528
71.246,78.0515,-0.029134
71.355,78.0515,-0.029134
71.463,78.0515,-0.026881
71.572,78.0515,-0.026881
71.683,78.0515,-0.026881
71.793,78.0515,-0.025185
71.901,78.0515,-0.025185
72.011,78.0515,-0.023780
72.119,78.0515,-0.023780
72.230,78.0515,-0.022696
72.338,78.0515,-0.022696
72.447,78.0515,-0.021820
72.557,78.0515,-0.021820
72.667,78.0515,-0.021820
72.776,78.0515,-0.020962
72.885,78.0515,-0.020962
72.995,78.0515,-0.020236
73.105,78.0515,-0.020236
73.213,78.0515,-0.019661
73.324,78.0515,-0.019661
73.434,78.0515,-0.019096
73.543,78.0515,-0.019096
73.648,78.0515,-0.019096
73.758,78.0515,-0.018587
73.866,78.0515,-0.018587
73.977,78.0515,-0.018153
74.088,78.0515,-0.018153
74.196,78.0515,-0.017776
74.306,78.0515,-0.017776
74.413,78.0515,-0.017776
74.521,78.0515,-0.017371
74.630,78.0515,-0.017371
74.740,78.0515,-0.017041
74.851,78.0515,-0.017041
74.961,78.0515,-0.017041
75.069,78.0515,-0.017314
75.179,78.0515,-0.017314
75.287,78.0515,-0.018050
75.397,78.0491,-0.018050
75.504,78.0382,-0.018342
75.614,78.0186,-0.018342
75.722,77.9966,-0.012555
75.831,77.9750,-0.012555
75.939,77.9534,-0.012555
76.047,77.9319,0.006117
76.156,77.9099,0.006117
76.265,77.8882,0.033922
76.375,77.8661,0.033922
76.485,77.8443,0.065695
76.595,77.8222,0.065695
76.704,77.8004,0.101728
76.814,77.7782,0.101728
76.923,77.7566,0.101728
77.032,77.7347,0.142192
77.141,77.7130,0.142192
77.249,77.6914,0.187019
77.359,77.6693,0.187019
77.467,77.6478,0.236596
77.576,77.6260,0.236596
77.684,77.6043,0.236596
77.794,77.5824,0.290802
77.903,77.5604,0.290802
78.013,77.5386,0.349362
78.122,77.5166,0.349362
78.233,77.4947,0.412239
78.343,77.4726,0.412239
78.454,77.4504,0.479216
78.565,77.4282,0.479216
78.675,77.4061,0.479216
78.785,77.3842,0.550773
78.895,77.3622,0.550773
79.002,77.3408,0.626921
79.111,77.3191,0.626921
79.221,77.2971,0.707480
79.329,77.2754,0.707480
79.438,77.2536,0.792045
79.547,77.2316,0.792045
79.657,77.2097,0.792045
79.766,77.1881,0.880295
79.875,77.1663,0.880295
79.985,77.1443,0.971420
80.094,77.1225,0.971420
80.204,77.1005,1.061423
80.314,77.0785,1.061423
80.421,77.0570,1.061423
80.530,77.0353,1.136204
80.639,77.0135,1.136204
80.748,76.9916,0.664170
80.858,76.9694,0.664170
80.967,76.9479,0.084461
81.076,76.9260,0.084461
81.186,76.9040,0.007267
81.295,76.8823,0.007267
81.406,76.8601,0.007267
81.513,76.8385,0.006815
81.622,76.8169,0.006815
81.731,76.7951,0.006541
81.842,76.7727,0.006541
81.952,76.7509,0.006334
82.063,76.7287,0.006334
82.172,76.7068,0.006334
82.283,76.6846,0.006230
82.393,76.6627,0.006230
82.502,76.6407,0.006127
82.612,76.6188,0.006127
82.720,76.5972,0.005966
82.829,76.5755,0.005966
82.938,76.5536,0.005891
83.049,76.5315,0.005891
83.160,76.5093,0.005891
83.269,76.4875,0.005815
83.378,76.4655,0.005815
83.487,76.4438,0.005684
83.597,76.4218,0.005684
83.707,76.3998,0.005608
83.817,76.3778,0.005608
83.925,76.3563,0.005608
84.035,76.3343,0.005504
84.143,76.3126,0.005504
84.252,76.2908,0.005372
84.361,76.2690,0.005372
84.470,76.2473,0.005297
84.580,76.2252,0.005297
84.690,76.2032,0.005184
84.797,76.1818,0.005184
84.908,76.1597,0.005184
85.015,76.1381,0.005118
85.124,76.1164,0.005118
85.234,76.0945,0.005052
85.343,76.0726,0.005052
85.452,76.0508,0.005005
85.560,76.0291,0.005005
85.669,76.0075,0.005005
85.778,75.9857,0.004995
85.888,75.9637,0.004995
85.995,75.9423,0.004929
86.104,75.9202,0.004929
86.214,75.8986,0.004835
86.323,75.8767,0.004835
86.431,75.8551,0.004835
86.538,75.8335,0.004694
86.646,75.8121,0.004694
86.757,75.7897,0.004628
86.866,75.7680,0.004628
86.976,75.7461,0.004628
87.086,75.7242,0.004600
87.196,75.7020,0.004505
87.303,75.6805,0.004505
87.411,75.6590,0.004505
87.520,75.6371,0.004496
87.629,75.6154,0.004496
87.738,75.5938,0.004486
87.845,75.5721,0.004486
87.954,75.5505,0.004449
88.063,75.5285,0.004449
88.172,75.5068,0.004449
88.282,75.4848,0.004439
88.390,75.4631,0.004439
88.499,75.4415,0.004421
88.607,75.4198,0.004421
88.717,75.3979,0.004364
88.827,75.3760,0.004364
88.935,75.3543,0.004317
89.044,75.3326,0.004317
89.153,75.3105,0.004317
89.264,75.2884,0.004317
89.372,75.2668,0.004317
89.481,75.2450,0.004298
89.591,75.2229,0.004298
89.701,75.2011,0.004317
89.809,75.1795,0.004317
89.916,75.1580,0.004317
90.026,75.1361,0.004289
90.134,75.1145,0.004289
90.244,75.0926,0.004260
