Elapsed Time (s),Position (mm),Force (N)
-0.007,74.1515,-0.076996
0.102,74.1515,-0.081143
0.212,74.1515,-0.081143
0.320,74.1515,-0.081143
0.426,74.1515,-0.079296
0.535,74.1515,-0.079296
0.646,74.1515,-0.077354
0.754,74.1515,-0.077354
0.863,74.1515,-0.075922
0.972,74.1515,-0.075922
1.081,74.1515,-0.074630
1.190,74.1515,-0.074630
1.299,74.1515,-0.074630
1.409,74.1515,-0.073518
1.518,74.1515,-0.073518
1.626,74.1515,-0.072594
1.735,74.1515,-0.072594
1.844,74.1515,-0.071803
1.955,74.1515,-0.071803
2.065,74.1515,-0.071803
2.175,74.1515,-0.071105
2.283,74.1515,-0.071105
2.392,74.1515,-0.070436
2.502,74.1515,-0.070436
2.612,74.1515,-0.070436
2.720,74.1515,-0.069795
2.830,74.1515,-0.069795
2.938,74.1515,-0.069239
3.047,74.1515,-0.069239
3.156,74.1515,-0.068758
3.266,74.1515,-0.068758
3.374,74.1515,-0.068334
3.483,74.1515,-0.068334
3.594,74.1515,-0.067967
3.704,74.1515,-0.067967
3.812,74.1515,-0.067967
3.921,74.1515,-0.067410
4.031,74.1515,-0.067410
4.140,74.1483,-0.066845
4.248,74.1364,-0.066845
4.358,74.1158,-0.064649
4.468,74.0940,-0.064649
4.577,74.0723,-0.064649
4.685,74.0504,-0.050134
4.795,74.0286,-0.050134
4.905,74.0068,-0.023139
5.014,73.9849,-0.023139
5.124,73.9629,-0.023139
5.231,73.9414,0.008313
5.340,73.9196,0.045025
5.448,73.8979,0.045025
5.557,73.8763,0.045025
5.667,73.8541,0.087289
5.777,73.8323,0.087289
5.886,73.8104,0.135283
5.994,73.7889,0.135283
6.103,73.7672,0.189130
6.213,73.7450,0.189130
6.322,73.7233,0.189130
6.431,73.7014,0.248868
6.539,73.6797,0.248868
6.646,73.6584,0.314130
6.756,73.6364,0.314130
6.866,73.6144,0.384858
6.976,73.5923,0.384858
7.085,73.5703,0.384858
7.194,73.5489,0.460723
7.301,73.5273,0.460723
7.410,73.5056,0.541112
7.519,73.4838,0.541112
7.627,73.4623,0.541112
7.737,73.4402,0.626073
7.846,73.4183,0.714568
7.956,73.3965,0.714568
8.065,73.3746,0.714568
8.175,73.3525,0.806880
8.285,73.3305,0.806880
8.395,73.3085,0.903491
8.506,73.2864,0.903491
8.616,73.2644,1.003862
8.725,73.2427,1.003862
8.835,73.2207,1.106618
8.944,73.1990,1.106618
9.054,73.1768,1.106618
9.164,73.1549,1.071904
9.272,73.1333,1.071904
9.379,73.1118,0.769593
9.488,73.0900,0.769593
9.597,73.0682,0.281650
9.706,73.0465,0.281650
9.816,73.0244,0.281650
9.926,73.0026,0.007927
10.035,72.9807,0.007927
10.143,72.9589,0.005797
10.251,72.9376,0.005797
10.360,72.9155,0.005354
10.470,72.8937,0.005354
10.580,72.8717,0.005354
10.689,72.8499,0.005184
10.798,72.8281,0.005184
10.908,72.8059,0.005061
11.018,72.7840,0.005061
11.128,72.7618,0.004920
11.239,72.7399,0.004920
11.348,72.7180,0.004835
11.456,72.6963,0.004835
11.566,72.6745,0.004835
11.677,72.6523,0.004750
11.788,72.6302,0.004750
11.896,72.6085,0.004741
12.006,72.5866,0.004741
12.115,72.5646,0.004703
12.224,72.5427,0.004703
12.335,72.5206,0.004703
12.444,72.4986,0.004637
12.555,72.4767,0.004637
12.664,72.4549,0.004609
12.774,72.4328,0.004609
12.883,72.4110,0.004552
12.991,72.3893,0.004552
13.100,72.3677,0.004637
13.209,72.3458,0.004637
13.318,72.3241,0.004637
13.426,72.3023,0.004637
13.536,72.2804,0.004637
13.645,72.2587,0.004637
13.755,72.2366,0.004637
13.863,72.2151,0.004647
13.972,72.1933,0.004647
14.080,72.1716,0.004647
14.190,72.1495,0.004571
14.298,72.1281,0.004571
14.409,72.1060,0.004666
14.517,72.0844,0.004666
14.626,72.0625,0.004675
14.736,72.0405,0.004675
14.846,72.0185,0.004609
14.955,71.9966,0.004609
15.065,71.9745,0.004609
15.172,71.9533,0.004647
15.281,71.9315,0.004647
15.390,71.9098,0.004656
15.499,71.8880,0.004656
15.608,71.8661,0.004732
15.717,71.8442,0.004732
15.827,71.8223,0.004769
15.936,71.8004,0.004769
16.047,71.7783,0.004769
16.157,71.7564,0.004760
16.266,71.7344,0.004760
16.376,71.7123,0.004779
16.486,71.6905,0.004779
16.595,71.6687,0.004798
16.705,71.6467,0.004798
16.815,71.6247,0.004798
16.924,71.6029,0.004882
17.033,71.5810,0.004882
17.143,71.5592,0.004892
17.252,71.5372,0.004892
17.359,71.5160,0.004864
17.469,71.4938,0.004864
17.578,71.4721,0.004864
17.687,71.4504,0.004892
17.793,71.4288,0.004892
17.903,71.4071,0.004929
18.011,71.3855,0.004929
18.121,71.3636,0.004939
18.230,71.3418,0.004939
18.340,71.3196,0.004977
18.448,71.2980,0.004977
18.556,71.2764,0.004977
18.665,71.2547,0.005033
18.774,71.2329,0.005033
18.883,71.2112,0.005052
18.993,71.1891,0.005052
19.103,71.1671,0.005099
19.212,71.1454,0.005099
19.323,71.1233,0.005099
19.431,71.1081,0.005109
19.540,71.1018,0.005109
19.647,71.1015,0.004995
19.757,71.1015,0.004995
19.865,71.1015,0.004967
19.976,71.1015,0.004967
20.087,71.1020,0.005005
20.196,71.1097,0.005005
20.305,71.1263,0.005005
20.414,71.1480,0.004807
20.524,71.1699,0.004807
20.632,71.1917,0.004618
20.740,71.2133,0.004618
20.848,71.2346,0.004609
20.958,71.2568,0.004609
21.068,71.2787,0.004609
21.179,71.3008,0.004543
21.289,71.3229,0.004543
21.397,71.3445,0.004534
21.508,71.3667,0.004534
21.614,71.3880,0.004486
21.722,71.4096,0.004486
21.831,71.4313,0.004486
21.939,71.4530,0.004411
22.049,71.4750,0.004411
22.158,71.4967,0.004373
22.268,71.5187,0.004373
22.377,71.5404,0.004260
22.486,71.5624,0.004260
22.595,71.5841,0.004241
22.706,71.6063,0.004241
22.816,71.6285,0.004241
22.924,71.6500,0.004270
23.033,71.6718,0.004270
23.143,71.6937,0.004166
23.253,71.7158,0.004166
23.361,71.7374,0.004119
23.470,71.7590,0.004119
23.580,71.7810,0.004043
23.689,71.8029,0.004043
23.797,71.8245,0.004043
23.906,71.8463,0.003921
24.015,71.8681,0.003921
24.124,71.8899,0.003864
24.232,71.9115,0.003864
24.342,71.9333,0.003883
24.450,71.9549,0.003883
24.559,71.9770,0.003883
24.667,71.9985,0.003864
24.776,72.0203,0.003864
24.885,72.0420,0.003827
24.993,72.0637,0.003827
25.102,72.0854,0.003789
25.210,72.1071,0.003789
25.321,72.1292,0.003789
25.429,72.1509,0.003685
25.540,72.1731,0.003685
25.648,72.1947,0.003648
25.757,72.2164,0.003648
25.865,72.2381,0.003629
25.974,72.2598,0.003629
26.083,72.2816,0.003629
26.191,72.3033,0.003610
26.300,72.3250,0.003610
26.410,72.3471,0.003553
26.518,72.3687,0.003553
26.626,72.3904,0.003440
26.734,72.4120,0.003440
26.845,72.4342,0.003440
26.954,72.4557,0.003431
27.062,72.4776,0.003431
27.172,72.4994,0.003421
27.281,72.5212,0.003421
27.390,72.5432,0.003421
27.501,72.5651,0.003289
27.610,72.5871,0.003176
27.721,72.6093,0.003176
27.830,72.6311,0.003176
27.939,72.6529,0.003186
28.049,72.6748,0.003186
28.156,72.6963,0.003129
28.264,72.7179,0.003129
28.373,72.7396,0.003016
28.482,72.7616,0.003016
28.591,72.7833,0.002894
28.700,72.8051,0.002894
28.810,72.8269,0.002894
28.918,72.8489,0.002780
29.028,72.8707,0.002780
29.138,72.8927,0.002696
29.248,72.9146,0.002696
29.356,72.9361,0.002601
29.466,72.9583,0.002601
29.576,72.9802,0.002583
29.683,73.0016,0.002583
29.793,73.0238,0.002583
29.903,73.0456,0.002337
30.012,73.0677,0.002337
30.121,73.0892,0.002111
30.231,73.1113,0.002111
30.339,73.1329,0.002008
30.447,73.1545,0.002008
30.555,73.1759,0.002008
30.663,73.1976,0.001772
30.770,73.2192,0.001772
30.880,73.2410,0.001499
30.988,73.2626,0.001499
31.098,73.2846,0.001188
31.207,73.3065,0.001188
31.315,73.3280,0.001188
31.424,73.3497,0.000745
31.533,73.3715,0.000745
31.642,73.3936,0.000254
31.753,73.4155,0.000254
31.861,73.4373,0.000254
31.969,73.4587,-0.000339
32.078,73.4807,-0.001442
32.187,73.5025,-0.001442
32.297,73.5244,-0.001442
32.406,73.5463,-0.002724
32.514,73.5680,-0.002724
32.623,73.5897,-0.004185
32.732,73.6115,-0.004185
32.841,73.6332,-0.006334
32.949,73.6548,-0.006334
33.058,73.6769,-0.006334
33.167,73.6983,-0.009397
33.276,73.7203,-0.009397
33.386,73.7422,-0.013431
33.495,73.7642,-0.013431
33.604,73.7858,-0.018540
33.710,73.8070,-0.018540
33.820,73.8289,-0.018540
33.930,73.8511,-0.024751
34.038,73.8727,-0.024751
34.149,73.8948,-0.031707
34.257,73.9164,-0.031707
34.367,73.9384,-0.039370
34.477,73.9605,-0.039370
34.586,73.9822,-0.047711
34.696,74.0044,-0.047711
34.804,74.0257,-0.047711
34.913,74.0477,-0.056882
35.023,74.0696,-0.056882
35.132,74.0889,-0.067043
35.240,74.0994,-0.067043
35.349,74.1015,-0.076317
35.457,74.1015,-0.076317
35.565,74.1015,-0.076317
35.674,74.1015,-0.079117
35.784,74.1015,-0.079117
35.895,74.1015,-0.076732
36.006,74.1015,-0.076732
36.114,74.1015,-0.074781
36.225,74.1015,-0.074781
36.334,74.1015,-0.073367
36.443,74.1015,-0.073367
36.553,74.1015,-0.073367
36.663,74.1015,-0.072161
36.772,74.1015,-0.072161
36.882,74.1015,-0.071058
36.991,74.1015,-0.071058
37.098,74.1015,-0.070125
37.207,74.1015,-0.070125
37.316,74.1015,-0.070125
37.425,74.1015,-0.069390
37.533,74.1015,-0.069390
37.643,74.1015,-0.068692
37.753,74.1015,-0.068692
37.863,74.1015,-0.068108
37.973,74.1015,-0.068108
38.083,74.1015,-0.068108
38.193,74.1015,-0.067514
38.302,74.1015,-0.067514
38.411,74.1015,-0.066930
38.520,74.1015,-0.066930
38.630,74.1015,-0.066487
38.740,74.1015,-0.066487
38.850,74.1015,-0.066063
38.960,74.1015,-0.066063
39.070,74.1015,-0.066063
39.181,74.1015,-0.065620
39.292,74.1015,-0.065620
39.401,74.1015,-0.065186
39.512,74.1015,-0.065186
39.621,74.1015,-0.064781
39.730,74.1015,-0.064781
39.839,74.1015,-0.064413
39.948,74.0971,-0.064413
40.057,74.0837,-0.064413
40.167,74.0623,-0.062754
40.274,74.0411,-0.062754
40.383,74.0193,-0.049926
40.492,73.9972,-0.049926
40.601,73.9756,-0.024167
40.710,73.9537,-0.024167
40.820,73.9320,-0.024167
40.928,73.9103,0.007060
41.036,73.8887,0.007060
41.146,73.8667,0.043734
41.254,73.8450,0.043734
41.364,73.8231,0.086271
41.473,73.8013,0.086271
41.583,73.7794,0.134604
41.691,73.7576,0.134604
41.800,73.7359,0.134604
41.908,73.7141,0.188687
42.018,73.6922,0.188687
42.129,73.6702,0.248218
42.237,73.6485,0.248218
42.346,73.6266,0.313272
42.455,73.6047,0.313272
42.564,73.5830,0.313272
42.674,73.5612,0.383840
42.784,73.5391,0.383840
42.892,73.5175,0.459658
43.001,73.4957,0.459658
43.111,73.4737,0.540217
43.220,73.4518,0.540217
43.330,73.4299,0.540217
43.437,73.4084,0.625017
43.546,73.3865,0.625017
43.657,73.3645,0.714068
43.766,73.3427,0.714068
43.877,73.3205,0.807286
43.988,73.2983,0.807286
44.096,73.2765,0.904791
44.206,73.2547,0.904791
44.316,73.2327,0.904791
44.424,73.2110,1.006190
44.533,73.1892,1.006190
44.644,73.1671,1.110293
44.755,73.1449,1.110293
44.864,73.1232,1.154480
44.974,73.1009,1.154480
45.082,73.0797,0.884828
45.190,73.0577,0.884828
45.300,73.0359,0.884828
45.408,73.0143,0.322933
45.517,72.9924,0.322933
45.626,72.9708,0.014619
45.735,72.9488,0.014619
45.844,72.9271,0.006494
45.954,72.9051,0.006494
46.064,72.8831,0.006494
46.173,72.8613,0.005881
46.283,72.8392,0.005881
46.391,72.8178,0.005608
46.500,72.7959,0.005608
46.610,72.7740,0.005354
46.718,72.7524,0.005354
46.828,72.7303,0.005354
46.936,72.7087,0.005203
47.046,72.6867,0.005203
47.157,72.6646,0.005165
47.266,72.6428,0.005165
47.375,72.6209,0.005165
47.484,72.5991,0.005137
47.593,72.5774,0.005033
47.700,72.5558,0.005033
47.809,72.5342,0.005033
47.918,72.5124,0.005071
48.027,72.4905,0.005071
48.136,72.4688,0.004986
48.248,72.4463,0.004986
48.354,72.4252,0.004882
48.462,72.4036,0.004882
48.572,72.3814,0.004882
48.682,72.3595,0.004929
48.791,72.3378,0.004929
48.900,72.3158,0.004901
49.008,72.2944,0.004901
49.120,72.2719,0.005024
49.229,72.2502,0.005024
49.337,72.2286,0.005024
49.447,72.2067,0.005052
49.554,72.1852,0.005052
49.663,72.1634,0.004892
49.773,72.1413,0.004892
49.881,72.1198,0.004873
49.989,72.0980,0.004873
50.097,72.0763,0.004911
50.207,72.0546,0.004911
50.315,72.0329,0.004911
50.425,72.0109,0.004939
50.534,71.9892,0.004939
50.643,71.9672,0.005043
50.751,71.9457,0.005043
50.861,71.9238,0.005033
50.971,71.9018,0.005033
51.078,71.8803,0.005033
51.188,71.8583,0.004967
51.296,71.8367,0.004967
51.405,71.8149,0.004986
51.515,71.7930,0.004986
51.623,71.7712,0.004977
51.733,71.7494,0.004977
51.842,71.7276,0.005033
51.951,71.7056,0.005033
52.061,71.6837,0.005033
52.170,71.6620,0.005043
52.279,71.6403,0.005043
52.387,71.6186,0.005024
52.497,71.5965,0.005024
52.607,71.5747,0.005109
52.715,71.5528,0.005109
52.825,71.5310,0.005109
52.933,71.5093,0.005127
53.043,71.4872,0.005127
53.153,71.4655,0.005156
53.262,71.4436,0.005156
53.372,71.4216,0.005165
53.481,71.3995,0.005165
53.589,71.3781,0.005137
53.696,71.3568,0.005137
53.806,71.3347,0.005137
53.915,71.3130,0.005212
54.025,71.2908,0.005212
54.134,71.2692,0.005269
54.246,71.2469,0.005269
54.353,71.2254,0.005269
54.461,71.2038,0.005269
54.569,71.1820,0.005269
54.678,71.1604,0.005325
54.789,71.1382,0.005325
54.898,71.1164,0.005325
55.009,71.0941,0.005325
55.117,71.0727,0.005288
55.228,71.0576,0.005288
55.336,71.0517,0.005288
55.446,71.0515,0.005316
55.556,71.0515,0.005316
55.666,71.0515,0.005231
55.774,71.0529,0.005231
55.884,71.0626,0.005156
55.995,71.0816,0.005156
56.105,71.1035,0.004995
56.214,71.1253,0.004995
56.321,71.1467,0.004995
56.431,71.1687,0.004779
56.543,71.1911,0.004779
56.652,71.2128,0.004713
56.761,71.2346,0.004713
56.870,71.2565,0.004713
56.981,71.2786,0.004609
57.091,71.3007,0.004571
57.200,71.3225,0.004571
57.310,71.3444,0.004571
57.419,71.3662,0.004562
57.526,71.3876,0.004562
57.635,71.4096,0.004430
57.744,71.4313,0.004430
57.854,71.4533,0.004336
57.962,71.4750,0.004336
58.072,71.4969,0.004336
58.181,71.5186,0.004373
58.289,71.5403,0.004373
58.396,71.5618,0.004317
58.504,71.5834,0.004317
58.614,71.6054,0.004213
58.724,71.6271,0.004213
58.832,71.6488,0.004213
58.944,71.6712,0.004157
59.051,71.6926,0.004157
59.160,71.7146,0.004091
59.270,71.7364,0.004091
59.379,71.7582,0.004081
59.487,71.7801,0.004081
59.597,71.8018,0.004062
59.705,71.8236,0.004062
59.814,71.8452,0.004062
59.922,71.8669,0.004015
60.031,71.8887,0.004015
60.140,71.9104,0.003959
60.250,71.9325,0.003959
60.358,71.9539,0.003902
60.466,71.9758,0.003902
60.575,71.9976,0.003902
60.684,72.0192,0.003836
60.794,72.0414,0.003836
60.904,72.0632,0.003770
61.014,72.0852,0.003770
61.121,72.1066,0.003732
61.231,72.1286,0.003732
61.339,72.1504,0.003648
61.450,72.1723,0.003648
61.560,72.1944,0.003648
61.669,72.2162,0.003572
61.778,72.2382,0.003572
61.886,72.2597,0.003666
61.993,72.2811,0.003666
62.101,72.3026,0.003666
62.210,72.3244,0.003572
62.319,72.3462,0.003572
62.428,72.3679,0.003374
62.536,72.3895,0.003374
62.646,72.4116,0.003261
62.757,72.4339,0.003261
62.865,72.4554,0.003233
62.973,72.4769,0.003233
63.081,72.4988,0.003318
63.190,72.5205,0.003318
63.300,72.5424,0.003318
63.411,72.5645,0.003176
63.518,72.5861,0.003176
63.626,72.6077,0.003054
63.735,72.6294,0.003054
63.846,72.6517,0.002969
63.954,72.6731,0.002969
64.064,72.6951,0.002969
64.171,72.7167,0.002856
64.281,72.7385,0.002856
64.390,72.7605,0.002856
64.500,72.7824,0.002856
64.609,72.8044,0.002743
64.718,72.8259,0.002743
64.826,72.8475,0.002743
64.935,72.8694,0.002658
65.043,72.8911,0.002658
65.154,72.9133,0.002526
65.261,72.9345,0.002526
65.371,72.9565,0.002394
65.479,72.9781,0.002394
65.589,73.0001,0.002272
65.700,73.0224,0.002272
65.809,73.0441,0.002272
65.920,73.0663,0.002055
66.028,73.0881,0.002055
66.140,73.1103,0.001819
66.249,73.1322,0.001819
66.358,73.1539,0.001621
66.466,73.1756,0.001621
66.575,73.1975,0.001621
66.684,73.2192,0.001357
66.792,73.2408,0.001357
66.901,73.2625,0.000999
67.010,73.2843,0.000999
67.119,73.3062,0.000566
67.228,73.3280,0.000566
67.335,73.3494,0.000566
67.444,73.3711,-0.000019
67.552,73.3927,-0.000019
67.661,73.4147,-0.000679
67.771,73.4365,-0.000679
67.878,73.4581,-0.001574
67.989,73.4802,-0.001574
68.099,73.5022,-0.002828
68.209,73.5242,-0.002828
68.318,73.5460,-0.002828
68.428,73.5680,-0.004524
68.536,73.5896,-0.004524
68.644,73.6114,-0.006852
68.755,73.6332,-0.006852
68.865,73.6554,-0.009934
68.971,73.6765,-0.009934
69.081,73.6984,-0.009934
69.190,73.7203,-0.014138
69.299,73.7422,-0.014138
69.409,73.7641,-0.019473
69.518,73.7859,-0.019473
69.626,73.8075,-0.025854
69.735,73.8293,-0.025854
69.843,73.8510,-0.033168
69.953,73.8729,-0.033168
70.063,73.8949,-0.033168
70.172,73.9169,-0.041048
70.281,73.9386,-0.041048
70.391,73.9605,-0.049559
70.501,73.9826,-0.049559
70.611,74.0045,-0.058975
70.718,74.0260,-0.058975
70.827,74.0429,-0.058975
70.934,74.0508,-0.069333
71.042,74.0515,-0.069333
71.151,74.0515,-0.076478
71.262,74.0515,-0.076478
71.371,74.0515,-0.076921
71.478,74.0515,-0.076921
71.586,74.0515,-0.074640
71.696,74.0515,-0.074640
71.807,74.0515,-0.074640
71.915,74.0515,-0.072934
72.025,74.0515,-0.072934
72.134,74.0515,-0.071614
72.244,74.0515,-0.071614
72.353,74.0515,-0.070445
72.461,74.0515,-0.070445
72.571,74.0515,-0.070445
72.681,74.0515,-0.069437
72.791,74.0515,-0.069437
72.899,74.0515,-0.068645
73.007,74.0515,-0.068645
73.116,74.0515,-0.067919
73.227,74.0515,-0.067919
73.334,74.0515,-0.067919
73.442,74.0515,-0.067184
73.551,74.0515,-0.067184
73.661,74.0515,-0.066572
73.770,74.0515,-0.066572
73.879,74.0515,-0.066025
73.990,74.0515,-0.066025
74.098,74.0515,-0.065478
74.208,74.0515,-0.065478
74.316,74.0515,-0.065478
74.426,74.0515,-0.065035
74.535,74.0515,-0.065035
74.644,74.0515,-0.064611
74.753,74.0515,-0.064611
74.863,74.0515,-0.064215
74.975,74.0515,-0.064215
75.081,74.0515,-0.064215
75.191,74.0512,-0.063829
75.300,74.0437,-0.063829
75.411,74.0274,-0.063405
75.519,74.0057,-0.063405
75.627,73.9841,-0.054592
75.736,73.9624,-0.054592
75.845,73.9403,-0.031688
75.954,73.9187,-0.031688
76.062,73.8970,-0.031688
76.172,73.8751,-0.000801
76.281,73.8531,-0.000801
76.391,73.8313,0.035355
76.500,73.8094,0.035355
76.610,73.7874,0.077269
76.720,73.7655,0.077269
76.827,73.7441,0.124971
76.936,73.7224,0.124971
77.046,73.7001,0.124971
77.155,73.6786,0.178357
77.264,73.6565,0.178357
77.374,73.6347,0.237134
77.482,73.6129,0.237134
77.593,73.5908,0.237134
77.702,73.5690,0.301396
77.812,73.5471,0.301396
77.920,73.5256,0.371087
78.028,73.5037,0.371087
78.137,73.4820,0.446274
78.249,73.4597,0.446274
78.356,73.4382,0.526767
78.466,73.4162,0.526767
78.575,73.3945,0.526767
78.684,73.3728,0.611897
78.792,73.3511,0.611897
78.900,73.3294,0.701306
79.010,73.3075,0.701306
79.117,73.2859,0.794533
79.226,73.2644,0.794533
79.337,73.2422,0.891568
79.445,73.2205,0.891568
79.553,73.1988,0.891568
79.661,73.1773,0.992325
79.771,73.1552,0.992325
79.879,73.1336,1.096645
79.988,73.1117,1.096645
80.097,73.0901,1.203416
80.207,73.0680,1.203416
80.317,73.0461,1.203416
80.426,73.0243,1.147825
80.535,73.0023,1.147825
80.645,72.9805,0.753665
80.755,72.9584,0.753665
80.866,72.9362,0.238642
80.974,72.9146,0.238642
81.085,72.8924,0.007305
81.194,72.8707,0.007305
81.303,72.8489,0.007305
81.413,72.8268,0.005768
81.523,72.8049,0.005768
81.631,72.7833,0.005363
81.740,72.7615,0.005363
81.847,72.7400,0.005184
81.959,72.7178,0.005184
82.068,72.6960,0.005184
82.177,72.6741,0.005052
82.286,72.6521,0.005052
82.396,72.6304,0.004948
82.504,72.6088,0.004948
82.613,72.5869,0.004948
82.722,72.5650,0.004911
82.832,72.5430,0.004911
82.941,72.5213,0.004826
83.050,72.4994,0.004826
83.159,72.4778,0.004741
83.267,72.4561,0.004741
83.376,72.4342,0.004703
83.485,72.4124,0.004703
83.595,72.3905,0.004722
83.705,72.3685,0.004722
83.816,72.3463,0.004722
83.925,72.3246,0.004703
84.036,72.3023,0.004703
84.144,72.2806,0.004666
84.254,72.2588,0.004666
84.362,72.2372,0.004656
84.471,72.2154,0.004656
84.580,72.1935,0.004666
84.690,72.1713,0.004666
84.798,72.1500,0.004666
84.907,72.1282,0.004656
85.016,72.1065,0.004656
85.126,72.0843,0.004675
85.234,72.0627,0.004675
85.343,72.0409,0.004694
85.452,72.0192,0.004694
85.561,71.9972,0.004694
85.670,71.9755,0.004675
85.777,71.9541,0.004675
85.888,71.9319,0.004675
85.997,71.9102,0.004675
86.106,71.8882,0.004694
86.214,71.8667,0.004694
86.323,71.8450,0.004694
86.431,71.8233,0.004722
86.540,71.8015,0.004722
86.649,71.7798,0.004722
86.758,71.7580,0.004722
86.868,71.7359,0.004741
86.977,71.7141,0.004741
87.086,71.6922,0.004741
87.195,71.6707,0.004760
87.304,71.6487,0.004760
87.413,71.6268,0.004807
87.523,71.6049,0.004807
87.632,71.5830,0.004807
87.741,71.5614,0.004807
87.850,71.5396,0.004873
87.960,71.5176,0.004873
88.070,71.4955,0.004873
88.178,71.4740,0.004967
88.286,71.4524,0.004967
88.396,71.4304,0.004958
88.505,71.4086,0.004958
88.613,71.3868,0.004929
88.723,71.3651,0.004929
88.832,71.3430,0.004939
88.942,71.3212,0.004939
89.052,71.2991,0.004939
89.161,71.2774,0.004986
89.270,71.2557,0.004986
89.377,71.2340,0.004995
89.485,71.2125,0.004995
89.595,71.1903,0.005024
89.705,71.1686,0.005024
89.816,71.1464,0.005024
89.925,71.1246,0.005090
90.035,71.1026,0.005090
