Elapsed Time (s),Position (mm),Force (N)
-0.021,72.6514,-0.126263
0.090,72.6514,-0.126263
0.198,72.6514,-0.132879
0.306,72.6514,-0.132879
0.416,72.6514,-0.129373
0.526,72.6514,-0.129373
0.637,72.6514,-0.125575
0.749,72.6514,-0.125575
0.855,72.6514,-0.122794
0.965,72.6514,-0.122794
1.072,72.6514,-0.122794
1.182,72.6514,-0.120579
1.291,72.6514,-0.120579
1.402,72.6514,-0.118769
1.511,72.6514,-0.118769
1.621,72.6514,-0.117224
1.730,72.6514,-0.117224
1.839,72.6514,-0.115772
1.948,72.6514,-0.115772
2.061,72.6514,-0.115772
2.169,72.6514,-0.114575
2.280,72.6514,-0.114575
2.390,72.6514,-0.113501
2.499,72.6514,-0.113501
2.608,72.6514,-0.112464
2.718,72.6514,-0.112464
2.827,72.6514,-0.112464
2.934,72.6514,-0.111568
3.044,72.6514,-0.111568
3.154,72.6514,-0.110852
3.262,72.6514,-0.110852
3.372,72.6514,-0.110079
3.481,72.6514,-0.110079
3.590,72.6514,-0.108826
3.699,72.6514,-0.108826
3.808,72.6514,-0.108826
3.917,72.6514,-0.106950
4.026,72.6514,-0.106950
4.135,72.6480,-0.105630
4.245,72.6352,-0.105630
4.354,72.6149,-0.102803
4.462,72.5933,-0.102803
4.571,72.5716,-0.102803
4.680,72.5497,-0.085300
4.790,72.5275,-0.085300
4.901,72.5055,-0.056458
5.012,72.4833,-0.056458
5.122,72.4612,-0.028135
5.230,72.4399,-0.028135
5.339,72.4178,-0.028135
5.446,72.3963,0.002752
5.556,72.3746,0.002752
5.665,72.3524,0.038531
5.774,72.3308,0.038531
5.883,72.3091,0.080512
5.992,72.2872,0.080512
6.101,72.2655,0.129203
6.209,72.2439,0.129203
6.317,72.2222,0.129203
6.427,72.2004,0.184568
6.536,72.1785,0.184568
6.646,72.1565,0.246983
6.756,72.1344,0.246983
6.865,72.1126,0.316618
6.973,72.0911,0.316618
7.082,72.0693,0.316618
7.191,72.0476,0.393105
7.300,72.0257,0.393105
7.410,72.0034,0.475936
7.520,71.9816,0.475936
7.629,71.9598,0.565043
7.738,71.9382,0.565043
7.848,71.9162,0.660033
7.957,71.8943,0.660033
8.065,71.8726,0.660033
8.176,71.8505,0.760291
8.282,71.8293,0.760291
8.390,71.8076,0.865968
8.501,71.7855,0.865968
8.611,71.7634,0.976783
8.722,71.7414,0.976783
8.831,71.7194,1.092960
8.940,71.6977,1.092960
9.050,71.6757,1.092960
9.158,71.6540,1.214529
9.267,71.6323,1.214529
9.376,71.6104,1.340650
9.485,71.5886,1.340650
9.595,71.5666,1.471767
9.703,71.5449,1.471767
9.811,71.5233,1.471767
9.922,71.5012,1.608812
10.031,71.4795,1.608812
10.140,71.4576,1.752399
10.249,71.4360,1.752399
10.358,71.4139,1.901726
10.467,71.3922,1.901726
10.577,71.3703,1.901726
10.686,71.3485,2.056971
10.795,71.3266,2.056971
10.904,71.3050,2.218824
11.012,71.2835,2.218824
11.120,71.2618,2.386700
11.229,71.2399,2.386700
11.339,71.2179,2.386700
11.449,71.1960,2.560693
11.558,71.1740,2.560693
11.667,71.1522,2.740275
11.776,71.1304,2.740275
11.884,71.1088,2.916380
11.993,71.0871,2.916380
12.102,71.0651,1.607587
12.211,71.0436,1.607587
12.321,71.0214,1.607587
12.429,70.9998,0.110485
12.541,70.9775,0.110485
12.648,70.9560,0.006796
12.756,70.9345,0.006796
12.863,70.9130,0.006296
12.974,70.8911,0.006296
13.083,70.8690,0.006079
13.191,70.8475,0.006079
13.299,70.8258,0.006079
13.409,70.8040,0.005966
13.519,70.7819,0.005966
13.629,70.7600,0.005891
13.738,70.7380,0.005891
13.846,70.7163,0.005891
13.954,70.6948,0.005853
14.064,70.6730,0.005853
14.173,70.6512,0.005853
14.282,70.6292,0.005853
14.392,70.6074,0.005825
14.499,70.5858,0.005825
14.609,70.5638,0.005815
14.718,70.5422,0.005815
14.827,70.5205,0.005815
14.936,70.4985,0.005815
15.045,70.4766,0.005815
15.154,70.4549,0.005863
15.263,70.4332,0.005863
15.373,70.4112,0.005853
15.481,70.3894,0.005853
15.591,70.3677,0.005853
15.700,70.3458,0.005844
15.808,70.3241,0.005844
15.918,70.3023,0.005825
16.025,70.2806,0.005825
16.134,70.2589,0.005806
16.244,70.2370,0.005806
16.352,70.2154,0.005844
16.460,70.1937,0.005844
16.569,70.1720,0.005844
16.679,70.1498,0.005806
16.788,70.1282,0.005806
16.896,70.1065,0.005768
17.004,70.0848,0.005768
17.113,70.0631,0.005815
17.224,70.0410,0.005815
17.334,70.0189,0.005815
17.442,69.9975,0.005872
17.552,69.9755,0.005872
17.660,69.9537,0.005881
17.769,69.9319,0.005881
17.878,69.9103,0.005881
17.987,69.8883,0.005881
18.096,69.8664,0.005910
18.207,69.8443,0.005910
18.314,69.8230,0.005910
18.424,69.8010,0.005910
18.534,69.7788,0.005910
18.643,69.7571,0.005900
18.754,69.7348,0.005900
18.865,69.7127,0.005938
18.974,69.6909,0.005938
19.082,69.6694,0.005938
19.190,69.6477,0.006013
19.299,69.6261,0.006013
19.407,69.6096,0.006042
19.515,69.6020,0.006042
19.624,69.6015,0.006042
19.733,69.6015,0.005919
19.843,69.6015,0.005834
19.952,69.6015,0.005834
20.061,69.6015,0.005834
20.168,69.6017,0.005768
20.278,69.6082,0.005768
20.387,69.6238,0.005646
20.496,69.6455,0.005646
20.604,69.6672,0.005533
20.714,69.6891,0.005533
20.823,69.7110,0.005533
20.932,69.7328,0.005429
21.041,69.7544,0.005429
21.149,69.7761,0.005354
21.258,69.7979,0.005354
21.369,69.8201,0.005297
21.478,69.8418,0.005297
21.587,69.8636,0.005297
21.697,69.8857,0.005231
21.807,69.9077,0.005231
21.918,69.9297,0.005175
22.027,69.9516,0.005175
22.138,69.9739,0.005127
22.247,69.9957,0.005127
22.358,70.0178,0.005071
22.468,70.0399,0.005071
22.578,70.0618,0.005071
22.686,70.0835,0.005014
22.795,70.1052,0.005014
22.905,70.1272,0.004939
23.014,70.1493,0.004939
23.123,70.1708,0.004873
23.232,70.1926,0.004873
23.341,70.2144,0.004873
23.450,70.2363,0.004798
23.561,70.2583,0.004798
23.670,70.2801,0.004750
23.779,70.3021,0.004750
23.888,70.3238,0.004741
23.997,70.3458,0.004741
24.105,70.3671,0.004694
24.214,70.3891,0.004694
24.323,70.4107,0.004694
24.433,70.4328,0.004618
24.541,70.4546,0.004618
24.652,70.4766,0.004534
24.759,70.4981,0.004534
24.868,70.5199,0.004496
24.977,70.5417,0.004496
25.087,70.5635,0.004515
25.196,70.5853,0.004515
25.304,70.6070,0.004515
25.413,70.6289,0.004449
25.523,70.6507,0.004449
25.632,70.6726,0.004364
25.741,70.6944,0.004364
25.848,70.7158,0.004298
25.957,70.7376,0.004298
26.067,70.7597,0.004298
26.176,70.7815,0.004213
26.286,70.8032,0.004213
26.396,70.8253,0.004100
26.505,70.8474,0.004100
26.614,70.8690,0.004034
26.723,70.8908,0.004034
26.831,70.9125,0.004034
26.941,70.9345,0.004015
27.050,70.9562,0.004015
27.158,70.9777,0.003902
27.268,70.9997,0.003902
27.377,71.0215,0.003780
27.487,71.0436,0.003780
27.594,71.0649,0.003676
27.704,71.0870,0.003676
27.813,71.1088,0.003676
27.923,71.1308,0.003638
28.032,71.1527,0.003638
28.141,71.1744,0.003525
28.251,71.1964,0.003525
28.359,71.2180,0.003365
28.470,71.2401,0.003365
28.579,71.2620,0.003289
28.691,71.2843,0.003289
28.799,71.3059,0.003289
28.908,71.3279,0.003139
29.016,71.3494,0.003139
29.124,71.3710,0.002912
29.235,71.3931,0.002912
29.342,71.4147,0.002686
29.452,71.4366,0.002686
29.562,71.4585,0.002686
29.672,71.4805,0.002469
29.780,71.5024,0.002469
29.888,71.5237,0.002168
29.996,71.5455,0.002168
30.105,71.5672,0.001810
30.215,71.5892,0.001810
30.326,71.6114,0.001810
30.434,71.6330,0.001404
30.542,71.6545,0.001404
30.652,71.6767,0.000886
30.761,71.6984,0.000886
30.869,71.7200,0.000264
30.979,71.7421,0.000264
31.089,71.7639,-0.000641
31.198,71.7858,-0.000641
31.306,71.8075,-0.000641
31.415,71.8293,-0.001715
31.526,71.8512,-0.001715
31.634,71.8729,-0.003214
31.743,71.8949,-0.003214
31.852,71.9165,-0.005269
31.963,71.9388,-0.005269
32.071,71.9604,-0.005269
32.179,71.9820,-0.008012
32.289,72.0039,-0.008012
32.398,72.0257,-0.011650
32.507,72.0476,-0.011650
32.617,72.0696,-0.016334
32.726,72.0914,-0.016334
32.834,72.1131,-0.016334
32.943,72.1346,-0.022074
33.052,72.1566,-0.022074
33.162,72.1785,-0.028729
33.272,72.2005,-0.028729
33.382,72.2227,-0.036043
33.489,72.2439,-0.036043
33.598,72.2657,-0.043602
33.708,72.2877,-0.043602
33.817,72.3094,-0.043602
33.927,72.3315,-0.051434
34.037,72.3535,-0.051434
34.146,72.3755,-0.059663
34.257,72.3974,-0.059663
34.367,72.4194,-0.068645
34.476,72.4412,-0.068645
34.582,72.4627,-0.068645
34.691,72.4844,-0.078909
34.801,72.5065,-0.078909
34.910,72.5282,-0.090955
35.019,72.5501,-0.090955
35.129,72.5718,-0.105517
35.237,72.5903,-0.105517
35.346,72.6000,-0.122144
35.454,72.6015,-0.122144
35.565,72.6015,-0.122144
35.674,72.6015,-0.130796
35.783,72.6015,-0.130796
35.890,72.6015,-0.128421
35.998,72.6015,-0.128421
36.107,72.6015,-0.124340
36.216,72.6015,-0.124340
36.325,72.6015,-0.124340
36.435,72.6015,-0.121456
36.546,72.6015,-0.121456
36.654,72.6015,-0.119184
36.765,72.6015,-0.119184
36.875,72.6015,-0.117299
36.987,72.6015,-0.117299
37.094,72.6015,-0.115687
37.204,72.6015,-0.115687
37.314,72.6015,-0.115687
37.422,72.6015,-0.114217
37.533,72.6015,-0.114217
37.644,72.6015,-0.112973
37.753,72.6015,-0.112973
37.863,72.6015,-0.111945
37.970,72.6015,-0.111945
38.079,72.6015,-0.111945
38.185,72.6015,-0.111012
38.295,72.6015,-0.111012
38.404,72.6015,-0.110108
38.512,72.6015,-0.110108
38.621,72.6015,-0.109240
38.730,72.6015,-0.109240
38.838,72.6015,-0.108534
38.949,72.6015,-0.108534
39.058,72.6015,-0.108534
39.167,72.6015,-0.107911
39.277,72.6015,-0.107911
39.387,72.6015,-0.107223
39.498,72.6015,-0.107223
39.609,72.6015,-0.106073
39.720,72.6015,-0.106073
39.830,72.6015,-0.104283
39.941,72.6015,-0.104283
40.050,72.6015,-0.104283
40.157,72.5981,-0.103020
40.266,72.5860,-0.103020
40.376,72.5652,-0.100362
40.488,72.5429,-0.100362
40.597,72.5208,-0.084027
40.708,72.4990,-0.084027
40.818,72.4771,-0.084027
40.928,72.4550,-0.056354
41.037,72.4330,-0.056354
41.146,72.4112,-0.028342
41.256,72.3894,-0.028342
41.364,72.3677,-0.028342
41.472,72.3460,0.002130
41.582,72.3241,0.002130
41.691,72.3023,0.037551
41.801,72.2805,0.037551
41.909,72.2587,0.079296
42.016,72.2373,0.079296
42.126,72.2154,0.127874
42.237,72.1932,0.127874
42.345,72.1715,0.183447
42.454,72.1496,0.183447
42.563,72.1281,0.183447
42.673,72.1060,0.246078
42.782,72.0842,0.246078
42.890,72.0626,0.315921
42.998,72.0410,0.315921
43.108,72.0188,0.392587
43.218,71.9968,0.392587
43.329,71.9749,0.392587
43.436,71.9533,0.475568
43.544,71.9317,0.475568
43.654,71.9097,0.564516
43.763,71.8880,0.564516
43.872,71.8662,0.659175
43.981,71.8442,0.659175
44.090,71.8226,0.759452
44.200,71.8005,0.759452
44.309,71.7788,0.759452
44.417,71.7569,0.864960
44.528,71.7350,0.864960
44.636,71.7133,0.864960
44.746,71.6914,0.975567
44.854,71.6697,1.084317
44.964,71.6476,1.084317
45.073,71.6259,1.084317
45.182,71.6042,1.140568
45.292,71.5822,1.140568
45.401,71.5603,1.148815
45.511,71.5385,1.148815
45.620,71.5164,1.148815
45.731,71.4944,1.116100
45.841,71.4724,0.638401
45.951,71.4504,0.638401
46.061,71.4284,0.638401
46.169,71.4069,0.103387
46.279,71.3848,0.103387
46.386,71.3633,0.008294
46.495,71.3415,0.008294
46.606,71.3194,0.007201
46.717,71.2971,0.007201
46.827,71.2753,0.007201
46.937,71.2533,0.006805
47.046,71.2314,0.006805
47.152,71.2102,0.006522
47.262,71.1882,0.006522
47.371,71.1664,0.006381
47.481,71.1442,0.006381
47.591,71.1224,0.006221
47.700,71.1007,0.006221
47.809,71.0787,0.006221
47.918,71.0570,0.006079
48.028,71.0349,0.006079
48.135,71.0135,0.006032
48.244,70.9918,0.006032
48.352,70.9702,0.005929
48.461,70.9484,0.005929
48.569,70.9266,0.005929
48.679,70.9049,0.005853
48.787,70.8832,0.005853
48.896,70.8613,0.005806
49.006,70.8393,0.005806
49.116,70.8173,0.005778
49.225,70.7956,0.005778
49.336,70.7735,0.005778
49.445,70.7515,0.005759
49.553,70.7299,0.005759
49.661,70.7084,0.005721
49.770,70.6867,0.005721
49.879,70.6650,0.005684
49.988,70.6431,0.005684
50.095,70.6214,0.005702
50.204,70.5997,0.005702
50.316,70.5774,0.005702
50.424,70.5558,0.005740
50.531,70.5345,0.005740
50.639,70.5129,0.005684
50.749,70.4910,0.005684
50.858,70.4690,0.005684
50.966,70.4473,0.005702
51.076,70.4253,0.005702
51.187,70.4033,0.005749
51.296,70.3814,0.005749
51.404,70.3599,0.005674
51.513,70.3379,0.005674
51.622,70.3162,0.005674
51.730,70.2945,0.005636
51.840,70.2727,0.005702
51.949,70.2507,0.005702
52.059,70.2288,0.005702
52.169,70.2069,0.005768
52.277,70.1852,0.005768
52.388,70.1630,0.005759
52.495,70.1415,0.005759
52.603,70.1200,0.005740
52.711,70.0985,0.005740
52.820,70.0766,0.005740
52.930,70.0546,0.005759
53.040,70.0327,0.005759
53.150,70.0107,0.005834
53.259,69.9888,0.005834
53.369,69.9670,0.005825
53.478,69.9450,0.005825
53.586,69.9232,0.005825
53.694,69.9018,0.005806
53.804,69.8798,0.005806
53.912,69.8581,0.005863
54.022,69.8362,0.005863
54.130,69.8145,0.005863
54.240,69.7926,0.005863
54.350,69.7706,0.005872
54.458,69.7490,0.005872
54.567,69.7271,0.005872
54.677,69.7051,0.005900
54.787,69.6833,0.005900
54.897,69.6611,0.005910
55.007,69.6392,0.005910
55.117,69.6173,0.005938
55.226,69.5954,0.005938
55.333,69.5742,0.005995
55.442,69.5584,0.005995
55.550,69.5517,0.005995
55.658,69.5515,0.005910
55.766,69.5515,0.005910
55.876,69.5515,0.005712
55.986,69.5515,0.005712
56.093,69.5542,0.005712
56.202,69.5657,0.005721
56.311,69.5857,0.005721
56.420,69.6075,0.005646
56.529,69.6294,0.005646
56.637,69.6509,0.005448
56.745,69.6725,0.005448
56.855,69.6945,0.005316
56.964,69.7162,0.005316
57.074,69.7384,0.005316
57.183,69.7601,0.005250
57.292,69.7819,0.005250
57.401,69.8037,0.005193
57.510,69.8254,0.005193
57.620,69.8475,0.005127
57.728,69.8690,0.005127
57.836,69.8908,0.005127
57.946,69.9128,0.005052
58.056,69.9346,0.005052
58.164,69.9564,0.004995
58.273,69.9781,0.004995
58.382,69.9999,0.005005
58.492,70.0218,0.005005
58.601,70.0436,0.004986
58.709,70.0653,0.004986
58.819,70.0871,0.004986
58.928,70.1091,0.004967
59.039,70.1313,0.004967
59.148,70.1530,0.004892
59.257,70.1749,0.004892
59.365,70.1964,0.004741
59.475,70.2186,0.004741
59.583,70.2401,0.004628
59.692,70.2620,0.004628
59.801,70.2837,0.004628
59.910,70.3054,0.004684
60.019,70.3272,0.004684
60.129,70.3492,0.004722
60.238,70.3710,0.004722
60.347,70.3929,0.004722
60.459,70.4153,0.004590
60.569,70.4375,0.004590
60.679,70.4592,0.004411
60.789,70.4812,0.004411
60.896,70.5027,0.004307
61.007,70.5247,0.004307
61.117,70.5468,0.004298
61.227,70.5688,0.004298
61.337,70.5908,0.004298
61.446,70.6127,0.004326
61.554,70.6342,0.004326
61.664,70.6562,0.004289
61.773,70.6780,0.004289
61.882,70.6997,0.004157
61.990,70.7215,0.004157
62.099,70.7433,0.004062
62.210,70.7653,0.004062
62.320,70.7875,0.004062
62.429,70.8092,0.003930
62.538,70.8310,0.003930
62.645,70.8525,0.003846
62.754,70.8742,0.003846
62.862,70.8960,0.003798
62.971,70.9177,0.003798
63.079,70.9393,0.003798
63.189,70.9611,0.003695
63.298,70.9830,0.003695
63.406,71.0047,0.003648
63.516,71.0266,0.003648
63.624,71.0482,0.003535
63.734,71.0701,0.003535
63.842,71.0918,0.003421
63.952,71.1137,0.003421
64.061,71.1358,0.003421
64.171,71.1575,0.003327
64.281,71.1797,0.003327
64.392,71.2019,0.003139
64.501,71.2234,0.003139
64.611,71.2456,0.002941
64.720,71.2675,0.002941
64.829,71.2892,0.002941
64.939,71.3111,0.002875
65.049,71.3333,0.002875
65.159,71.3554,0.002762
65.268,71.3770,0.002762
65.376,71.3986,0.002517
65.485,71.4204,0.002517
65.597,71.4428,0.002517
65.704,71.4642,0.002177
65.812,71.4859,0.002177
65.921,71.5077,0.001876
66.031,71.5295,0.001876
66.142,71.5518,0.001565
66.252,71.5738,0.001565
66.363,71.5960,0.001197
66.473,71.6180,0.001197
66.582,71.6399,0.001197
66.691,71.6616,0.000679
66.801,71.6836,0.000679
66.909,71.7051,-0.000085
67.017,71.7270,-0.000085
67.126,71.7484,-0.000961
67.237,71.7708,-0.000961
67.344,71.7922,-0.002168
67.454,71.8140,-0.002168
67.563,71.8361,-0.002168
67.671,71.8577,-0.003770
67.781,71.8795,-0.003770
67.891,71.9016,-0.003770
67.999,71.9232,-0.005853
68.109,71.9453,-0.008888
68.219,71.9671,-0.008888
68.326,71.9887,-0.008888
68.435,72.0105,-0.013026
68.546,72.0324,-0.013026
68.654,72.0541,-0.017918
68.762,72.0757,-0.017918
68.871,72.0976,-0.023818
68.980,72.1194,-0.023818
69.089,72.1412,-0.030755
69.200,72.1634,-0.030755
69.309,72.1852,-0.030755
69.419,72.2073,-0.038229
69.527,72.2288,-0.038229
69.636,72.2506,-0.046175
69.746,72.2725,-0.046175
69.852,72.2939,-0.054375
69.963,72.3160,-0.054375
70.073,72.3379,-0.054375
70.181,72.3597,-0.063028
70.290,72.3813,-0.063028
70.398,72.4029,-0.072623
70.507,72.4246,-0.072623
70.616,72.4467,-0.083518
70.725,72.4684,-0.083518
70.834,72.4901,-0.083518
70.944,72.5123,-0.096573
71.054,72.5332,-0.096573
71.162,72.5468,-0.112351
71.272,72.5515,-0.112351
71.381,72.5515,-0.125622
71.489,72.5515,-0.125622
71.597,72.5515,-0.127856
71.708,72.5515,-0.127856
71.816,72.5515,-0.127856
71.925,72.5515,-0.123529
72.034,72.5515,-0.123529
72.144,72.5515,-0.120325
72.255,72.5515,-0.120325
72.363,72.5515,-0.117997
72.472,72.5515,-0.117997
72.582,72.5515,-0.117997
72.691,72.5515,-0.116140
72.799,72.5515,-0.116140
72.908,72.5515,-0.114547
73.018,72.5515,-0.114547
73.127,72.5515,-0.114547
73.237,72.5515,-0.113190
73.346,72.5515,-0.111993
73.456,72.5515,-0.111993
73.564,72.5515,-0.111993
73.674,72.5515,-0.110946
73.784,72.5515,-0.110946
73.892,72.5515,-0.110013
74.001,72.5515,-0.110013
74.109,72.5515,-0.109156
74.220,72.5515,-0.109156
74.329,72.5515,-0.108430
74.440,72.5515,-0.108430
74.549,72.5515,-0.108430
74.658,72.5515,-0.107770
74.768,72.5515,-0.107770
74.877,72.5515,-0.107129
74.987,72.5515,-0.107129
75.096,72.5515,-0.106526
75.206,72.5515,-0.106526
75.315,72.5515,-0.106526
75.425,72.5515,-0.105744
75.535,72.5515,-0.105744
75.644,72.5515,-0.104104
75.754,72.5515,-0.104104
75.864,72.5515,-0.102435
75.974,72.5510,-0.102435
76.083,72.5435,-0.102435
76.193,72.5272,-0.101766
76.303,72.5052,-0.101766
76.410,72.4838,-0.092850
76.518,72.4622,-0.092850
76.627,72.4404,-0.070012
76.736,72.4186,-0.070012
76.844,72.3969,-0.042150
76.954,72.3750,-0.042150
77.064,72.3529,-0.042150
77.175,72.3307,-0.012922
77.284,72.3090,-0.012922
77.392,72.2873,0.020708
77.501,72.2656,0.020708
77.610,72.2438,0.060078
77.721,72.2216,0.060078
77.830,72.1996,0.060078
77.940,72.1779,0.105866
78.049,72.1561,0.105866
78.158,72.1341,0.158290
78.266,72.1126,0.158290
78.374,72.0911,0.218038
78.481,72.0694,0.218038
78.590,72.0477,0.285232
78.700,72.0259,0.285232
78.810,72.0038,0.285232
78.921,71.9816,0.359287
79.030,71.9598,0.359287
79.140,71.9377,0.439949
79.249,71.9161,0.439949
79.359,71.8940,0.526409
79.467,71.8726,0.526409
79.576,71.8507,0.526409
79.685,71.8288,0.618787
79.795,71.8066,0.618787
79.904,71.7850,0.716670
80.013,71.7633,0.716670
80.122,71.7415,0.819605
80.231,71.7197,0.819605
80.340,71.6977,0.819605
80.449,71.6761,0.928138
80.558,71.6543,0.928138
80.667,71.6323,1.041988
80.777,71.6104,1.041988
80.885,71.5888,1.161323
80.993,71.5674,1.161323
81.101,71.5455,1.174707
81.210,71.5239,1.174707
81.318,71.5021,1.174707
81.426,71.4808,0.962079
81.532,71.4593,0.962079
81.642,71.4373,0.684623
81.751,71.4158,0.684623
81.860,71.3938,0.322009
81.969,71.3720,0.322009
82.078,71.3503,0.322009
82.186,71.3285,0.040982
82.296,71.3068,0.040982
82.406,71.2846,0.008926
82.515,71.2628,0.008926
82.625,71.2407,0.007474
82.735,71.2190,0.007474
82.845,71.1969,0.006928
82.953,71.1752,0.006928
83.062,71.1536,0.006928
83.171,71.1317,0.006579
83.279,71.1101,0.006579
83.388,71.0882,0.006277
83.497,71.0663,0.006277
83.606,71.0446,0.006079
83.718,71.0221,0.006079
83.826,71.0007,0.006079
83.935,70.9787,0.005995
84.044,70.9570,0.005995
84.153,70.9352,0.005863
84.262,70.9134,0.005863
84.370,70.8917,0.005759
84.480,70.8700,0.005759
84.590,70.8478,0.005759
84.698,70.8262,0.005712
84.809,70.8040,0.005712
84.917,70.7825,0.005665
85.026,70.7607,0.005665
85.136,70.7388,0.005665
85.246,70.7168,0.005618
85.354,70.6948,0.005674
85.461,70.6736,0.005674
85.573,70.6513,0.005674
85.680,70.6299,0.005665
85.792,70.6074,0.005665
85.901,70.5857,0.005627
86.008,70.5643,0.005627
86.115,70.5427,0.005655
86.225,70.5207,0.005655
86.335,70.4988,0.005665
86.444,70.4772,0.005665
86.553,70.4554,0.005665
86.661,70.4337,0.005627
86.771,70.4117,0.005627
86.879,70.3899,0.005627
86.989,70.3680,0.005608
87.097,70.3465,0.005655
87.210,70.3239,0.005655
87.316,70.3026,0.005655
87.424,70.2809,0.005655
87.534,70.2590,0.005655
87.644,70.2371,0.005665
87.753,70.2152,0.005665
87.862,70.1935,0.005608
87.972,70.1715,0.005608
88.080,70.1499,0.005618
88.190,70.1278,0.005618
88.300,70.1056,0.005618
88.409,70.0842,0.005693
88.517,70.0623,0.005693
88.626,70.0407,0.005749
88.735,70.0187,0.005749
88.845,69.9970,0.005749
88.954,69.9751,0.005740
89.062,69.9533,0.005740
89.172,69.9316,0.005749
89.282,69.9094,0.005749
89.391,69.8877,0.005815
89.502,69.8654,0.005815
89.609,69.8440,0.005787
89.718,69.8223,0.005787
89.828,69.8004,0.005787
89.938,69.7783,0.005806
