Elapsed Time (s),Position (mm),Force (N)
-0.013,77.4094,-0.048172
0.018,77.4094,-0.048172
0.050,77.4094,-0.048172
0.081,77.4094,-0.048172
0.112,77.4094,-0.048172
0.144,77.4094,-0.048172
0.174,77.4094,-0.048172
0.206,77.4094,-0.045320
0.238,77.4094,-0.045320
0.269,77.4094,-0.045320
0.300,77.4094,-0.045320
0.331,77.4094,-0.045320
0.364,77.4094,-0.045320
0.394,77.4094,-0.045320
0.425,77.4094,-0.045320
0.456,77.4094,-0.045320
0.487,77.4094,-0.043278
0.518,77.4094,-0.043278
0.549,77.4094,-0.043278
0.588,77.4094,-0.043278
0.625,77.4094,-0.043278
0.657,77.4094,-0.043278
0.688,77.4094,-0.043278
0.720,77.4094,-0.041735
0.753,77.4094,-0.041735
0.782,77.4094,-0.041735
0.813,77.4094,-0.041735
0.844,77.4094,-0.041735
0.876,77.4094,-0.041735
0.907,77.4094,-0.041735
0.938,77.4094,-0.041735
0.968,77.4094,-0.041735
0.999,77.4094,-0.040446
1.030,77.4094,-0.040446
1.061,77.4094,-0.040446
1.093,77.4094,-0.040446
1.124,77.4094,-0.040446
1.156,77.4094,-0.040446
1.186,77.4094,-0.040446
1.216,77.4094,-0.039392
1.246,77.4094,-0.039392
1.277,77.4094,-0.039392
1.308,77.4094,-0.039392
1.340,77.4094,-0.039392
1.372,77.4094,-0.039392
1.403,77.4094,-0.039392
1.434,77.4094,-0.039392
1.464,77.4094,-0.038526
1.497,77.4094,-0.038526
1.528,77.4094,-0.038526
1.561,77.4094,-0.038526
1.590,77.4094,-0.038526
1.621,77.4094,-0.038526
1.652,77.4094,-0.038526
1.683,77.4094,-0.038526
1.714,77.4094,-0.037717
1.745,77.4094,-0.037717
1.776,77.4094,-0.037717
1.807,77.4094,-0.037717
1.838,77.4094,-0.037717
1.870,77.4094,-0.037717
1.899,77.4094,-0.037717
1.929,77.4094,-0.037717
1.961,77.4094,-0.037020
1.991,77.4094,-0.037020
2.022,77.4094,-0.037020
2.054,77.4094,-0.037020
2.084,77.4094,-0.037020
2.114,77.4094,-0.037020
2.145,77.4094,-0.037020
2.176,77.4094,-0.037020
2.207,77.4094,-0.037020
2.237,77.4094,-0.036362
2.269,77.4094,-0.036362
2.299,77.4094,-0.036362
2.330,77.4094,-0.036362
2.361,77.4094,-0.036362
2.391,77.4094,-0.036362
2.422,77.4094,-0.036362
2.453,77.4094,-0.036362
2.483,77.4094,-0.035825
2.515,77.4094,-0.035825
2.546,77.4094,-0.035825
2.577,77.4094,-0.035825
2.608,77.4094,-0.035825
2.639,77.4094,-0.035825
2.669,77.4094,-0.035825
2.701,77.4094,-0.035825
2.731,77.4094,-0.035327
2.763,77.4094,-0.035327
2.794,77.4094,-0.035327
2.824,77.4094,-0.035327
2.856,77.4094,-0.035327
2.887,77.4094,-0.035327
2.918,77.4094,-0.035327
2.949,77.4094,-0.034818
2.980,77.4094,-0.034818
3.010,77.4094,-0.034818
3.041,77.4094,-0.034818
3.072,77.4094,-0.034818
3.104,77.4094,-0.034818
3.135,77.4094,-0.034818
3.166,77.4094,-0.034818
3.197,77.4094,-0.034818
3.228,77.4094,-0.034395
3.260,77.4094,-0.034395
3.292,77.4094,-0.034395
3.322,77.4094,-0.034395
3.353,77.4094,-0.034395
3.384,77.4094,-0.034395
3.416,77.4094,-0.034395
3.447,77.4094,-0.034000
3.478,77.4094,-0.034000
3.509,77.4094,-0.034000
3.540,77.4094,-0.034000
3.571,77.4094,-0.034000
3.604,77.4094,-0.034000
3.634,77.4094,-0.034000
3.664,77.4094,-0.034000
3.695,77.4094,-0.033604
3.727,77.4094,-0.033604
3.757,77.4094,-0.033604
3.788,77.4094,-0.033604
3.819,77.4094,-0.033604
3.850,77.4094,-0.033604
3.880,77.4094,-0.033604
3.911,77.4094,-0.033604
3.942,77.4094,-0.033153
3.974,77.4094,-0.033153
4.005,77.4094,-0.033153
4.035,77.4094,-0.033153
4.066,77.4094,-0.033153
4.097,77.4090,-0.033153
4.128,77.4079,-0.033153
4.159,77.4059,-0.033153
4.190,77.4034,-0.032767
4.221,77.4001,-0.032767
4.252,77.3958,-0.032767
4.283,77.3912,-0.032767
4.315,77.3854,-0.032767
4.347,77.3790,-0.032767
4.379,77.3718,-0.032767
4.410,77.3643,-0.032767
4.440,77.3559,-0.032767
4.471,77.3468,-0.029774
4.502,77.3367,-0.029774
4.533,77.3264,-0.029774
4.565,77.3146,-0.029774
4.596,77.3024,-0.029774
4.628,77.2889,-0.029774
4.658,77.2757,-0.029774
4.694,77.2592,-0.029774
4.721,77.2459,-0.020402
4.752,77.2303,-0.020402
4.782,77.2143,-0.020402
4.813,77.1969,-0.020402
4.845,77.1784,-0.020402
4.875,77.1602,-0.020402
4.907,77.1408,-0.020402
4.936,77.1210,-0.020402
4.967,77.1005,-0.006390
4.998,77.0793,-0.006390
5.029,77.0569,-0.006390
5.060,77.0336,-0.006390
5.091,77.0106,-0.006390
5.123,76.9856,-0.006390
5.154,76.9598,-0.006390
5.186,76.9336,0.007359
5.216,76.9071,0.007359
5.248,76.8789,0.007359
5.279,76.8511,0.007359
5.310,76.8223,0.007359
5.341,76.7922,0.007359
5.372,76.7617,0.007359
5.402,76.7311,0.007359
5.433,76.7002,0.007359
5.464,76.6674,0.017089
5.495,76.6351,0.017089
5.526,76.5996,0.017089
5.557,76.5666,0.017089
5.588,76.5302,0.017089
5.619,76.4952,0.017089
5.651,76.4547,0.017089
5.680,76.4210,0.017089
5.711,76.3829,0.022717
5.742,76.3437,0.022717
5.778,76.2971,0.022717
5.804,76.2631,0.022717
5.835,76.2227,0.022717
5.865,76.1816,0.022717
5.896,76.1392,0.022717
5.927,76.0959,0.022717
5.959,76.0512,0.022717
5.990,76.0058,0.027996
6.022,75.9593,0.027996
6.052,75.9138,0.027996
6.083,75.8664,0.027996
6.114,75.8206,0.027996
6.146,75.7727,0.027996
6.176,75.7276,0.027996
6.207,75.6808,0.027996
6.238,75.6343,0.034442
6.270,75.5870,0.034442
6.300,75.5412,0.034442
6.331,75.4941,0.034442
6.362,75.4488,0.034442
6.393,75.4017,0.034442
6.424,75.3556,0.034442
6.456,75.3074,0.034442
6.487,75.2611,0.038573
6.518,75.2150,0.038573
6.549,75.1685,0.038573
6.580,75.1220,0.038573
6.611,75.0755,0.038573
6.641,75.0302,0.038573
6.673,74.9833,0.038573
6.704,74.9355,0.038573
6.735,74.8902,0.024448
6.765,74.8439,0.024448
6.797,74.7966,0.024448
6.828,74.7497,0.024448
6.859,74.7029,0.024448
6.891,74.6544,0.024448
6.922,74.6078,0.024448
6.954,74.5589,0.024448
6.985,74.5151,0.024448
7.015,74.4685,0.007839
7.045,74.4239,0.007839
7.076,74.3775,0.007839
7.107,74.3317,0.007839
7.137,74.2862,0.007839
7.168,74.2387,0.007839
7.200,74.1924,0.007839
7.230,74.1456,0.005929
7.262,74.0985,0.005929
7.293,74.0520,0.005929
7.323,74.0063,0.005929
7.355,73.9593,0.005929
7.386,73.9133,0.005929
7.417,73.8660,0.005929
7.448,73.8195,0.005674
7.480,73.7719,0.005674
7.511,73.7282,0.005674
7.543,73.6828,0.005674
7.574,73.6382,0.005674
7.606,73.5940,0.005674
7.637,73.5522,0.005674
7.666,73.5130,0.005674
7.697,73.4733,0.005674
7.728,73.4333,0.005562
7.759,73.3942,0.005562
7.789,73.3566,0.005562
7.820,73.3194,0.005562
7.850,73.2828,0.005562
7.882,73.2465,0.005562
7.913,73.2103,0.005562
7.944,73.1752,0.005562
7.974,73.1422,0.005467
8.006,73.1087,0.005467
8.036,73.0755,0.005467
8.068,73.0439,0.005467
8.099,73.0127,0.005467
8.137,72.9749,0.005467
8.176,72.9379,0.005467
8.207,72.9095,0.005430
8.238,72.8810,0.005430
8.269,72.8540,0.005430
8.300,72.8274,0.005430
8.332,72.8010,0.005430
8.362,72.7766,0.005430
8.394,72.7519,0.005430
8.426,72.7280,0.005430
8.456,72.7054,0.005430
8.488,72.6827,0.005355
8.519,72.6615,0.005355
8.550,72.6408,0.005355
8.580,72.6211,0.005355
8.611,72.6026,0.005355
8.643,72.5834,0.005355
8.675,72.5655,0.005355
8.706,72.5483,0.005355
8.735,72.5330,0.005326
8.769,72.5160,0.005326
8.801,72.5006,0.005326
8.833,72.4867,0.005326
8.863,72.4735,0.005326
8.895,72.4609,0.005326
8.925,72.4493,0.005326
8.956,72.4379,0.005289
8.987,72.4280,0.005289
9.018,72.4184,0.005289
9.048,72.4095,0.005289
9.082,72.4005,0.005289
9.111,72.3937,0.005289
9.142,72.3871,0.005289
9.173,72.3811,0.005289
9.205,72.3756,0.005195
9.236,72.3710,0.005195
9.265,72.3676,0.005195
9.297,72.3645,0.005195
9.327,72.3621,0.005195
9.358,72.3605,0.005195
9.389,72.3596,0.005195
9.420,72.3594,0.005195
9.451,72.3594,0.005185
9.482,72.3594,0.005185
9.514,72.3594,0.005185
9.545,72.3594,0.005185
9.575,72.3599,0.005185
9.607,72.3610,0.005185
9.638,72.3630,0.005185
9.668,72.3656,0.005185
9.699,72.3689,0.005185
9.731,72.3731,0.005242
9.762,72.3781,0.005242
9.794,72.3838,0.005242
9.824,72.3899,0.005242
9.855,72.3968,0.005242
9.886,72.4048,0.005242
9.917,72.4132,0.005242
9.947,72.4224,0.005147
9.979,72.4323,0.005147
10.010,72.4432,0.005147
10.043,72.4549,0.005147
10.073,72.4671,0.005147
10.104,72.4802,0.005147
10.135,72.4932,0.005147
10.166,72.5075,0.005147
10.196,72.5225,0.005147
10.227,72.5382,0.004997
10.258,72.5547,0.004997
10.290,72.5722,0.004997
10.320,72.5897,0.004997
10.351,72.6084,0.004997
10.383,72.6286,0.004997
10.414,72.6483,0.004997
10.445,72.6699,0.004978
10.476,72.6909,0.004978
10.507,72.7137,0.004978
10.539,72.7369,0.004978
10.569,72.7603,0.004978
10.600,72.7855,0.004978
10.631,72.8099,0.004978
10.663,72.8362,0.004978
10.694,72.8636,0.004978
10.725,72.8911,0.004856
10.756,72.9196,0.004856
10.788,72.9487,0.004856
10.818,72.9773,0.004856
10.848,73.0076,0.004856
10.880,73.0389,0.004856
10.912,73.0725,0.004856
10.944,73.1052,0.004686
10.974,73.1377,0.004686
11.005,73.1721,0.004686
11.035,73.2061,0.004686
11.067,73.2415,0.004686
11.098,73.2776,0.004686
11.128,73.3145,0.004686
11.160,73.3533,0.004686
11.191,73.3910,0.004686
11.222,73.4304,0.004564
11.253,73.4699,0.004564
11.284,73.5107,0.004564
11.315,73.5510,0.004564
11.350,73.5998,0.004564
11.376,73.6354,0.004564
11.407,73.6793,0.004564
11.438,73.7228,0.004357
11.469,73.7675,0.004357
11.500,73.8148,0.004357
11.533,73.8640,0.004357
11.562,73.9067,0.004357
11.592,73.9518,0.004357
11.623,73.9990,0.004357
11.654,74.0452,0.004357
11.685,74.0915,0.004357
11.716,74.1385,0.004103
11.747,74.1852,0.004103
11.778,74.2317,0.004103
11.810,74.2780,0.004103
11.840,74.3243,0.004103
11.872,74.3712,0.004103
11.903,74.4194,0.004103
11.934,74.4645,0.004103
11.965,74.5103,0.003924
11.996,74.5579,0.003924
12.028,74.6048,0.003924
12.058,74.6509,0.003924
12.090,74.6978,0.003924
12.120,74.7424,0.003924
12.150,74.7889,0.003924
12.182,74.8370,0.003632
12.213,74.8831,0.003632
12.244,74.9298,0.003632
12.275,74.9761,0.003632
12.306,75.0219,0.003632
12.337,75.0693,0.003632
12.368,75.1155,0.003632
12.399,75.1633,0.003632
12.431,75.2103,0.003632
12.462,75.2575,0.003275
12.493,75.3021,0.003275
12.524,75.3496,0.003275
12.554,75.3941,0.003275
12.586,75.4426,0.003275
12.617,75.4888,0.003275
12.649,75.5372,0.003275
12.679,75.5816,0.003275
12.710,75.6280,0.002833
12.742,75.6755,0.002833
12.772,75.7223,0.002833
12.804,75.7700,0.002833
12.834,75.8143,0.002833
12.865,75.8613,0.002833
12.896,75.9073,0.002833
12.928,75.9533,0.002833
12.959,75.9996,0.002833
12.991,76.0440,0.002014
13.022,76.0874,0.002014
13.053,76.1302,0.002014
13.085,76.1737,0.002014
13.115,76.2139,0.002014
13.146,76.2548,0.002014
13.178,76.2946,0.002014
13.208,76.3337,0.000659
13.240,76.3718,0.000659
13.275,76.4153,0.000659
13.302,76.4464,0.000659
13.333,76.4838,0.000659
13.364,76.5186,0.000659
13.396,76.5537,0.000659
13.426,76.5868,0.000659
13.457,76.6201,0.000659
13.489,76.6528,-0.001920
13.522,76.6868,-0.001920
13.551,76.7164,-0.001920
13.582,76.7463,-0.001920
13.613,76.7762,-0.001920
13.647,76.8076,-0.001920
13.675,76.8328,-0.001920
13.706,76.8597,-0.007274
13.737,76.8867,-0.007274
13.768,76.9119,-0.007274
13.800,76.9379,-0.007274
13.830,76.9616,-0.007274
13.862,76.9866,-0.007274
13.893,77.0090,-0.007274
13.924,77.0312,-0.007274
13.955,77.0528,-0.016543
13.986,77.0732,-0.016543
14.016,77.0937,-0.016543
14.048,77.1128,-0.016543
14.079,77.1315,-0.016543
14.111,77.1499,-0.016543
14.142,77.1668,-0.016543
14.172,77.1826,-0.016543
14.202,77.1984,-0.016543
14.233,77.2131,-0.028843
14.264,77.2274,-0.028843
14.295,77.2406,-0.028843
14.326,77.2536,-0.028843
14.356,77.2656,-0.028843
14.388,77.2768,-0.028843
14.419,77.2877,-0.028843
14.451,77.2975,-0.028843
14.481,77.3065,-0.041133
14.513,77.3151,-0.041133
14.544,77.3227,-0.041133
14.575,77.3297,-0.041133
14.607,77.3362,-0.041133
14.639,77.3418,-0.041133
14.669,77.3463,-0.041133
14.700,77.3503,-0.041133
14.731,77.3535,-0.049743
14.762,77.3561,-0.049743
14.794,77.3580,-0.049743
14.825,77.3590,-0.049743
14.856,77.3594,-0.049743
14.887,77.3594,-0.049743
14.918,77.3594,-0.049743
14.948,77.3594,-0.049743
14.979,77.3594,-0.052124
15.010,77.3594,-0.052124
15.041,77.3594,-0.052124
15.072,77.3594,-0.052124
15.103,77.3594,-0.052124
15.135,77.3594,-0.052124
15.165,77.3594,-0.052124
15.196,77.3594,-0.052124
15.227,77.3594,-0.052124
15.258,77.3594,-0.049612
15.288,77.3594,-0.049612
15.320,77.3594,-0.049612
15.351,77.3594,-0.049612
15.382,77.3594,-0.049612
15.413,77.3594,-0.049612
15.445,77.3594,-0.049612
15.475,77.3594,-0.046290
15.506,77.3594,-0.046290
15.537,77.3594,-0.046290
15.569,77.3594,-0.046290
15.599,77.3594,-0.046290
15.631,77.3594,-0.046290
15.662,77.3594,-0.046290
15.695,77.3594,-0.046290
15.724,77.3594,-0.043994
15.755,77.3594,-0.043994
15.785,77.3594,-0.043994
15.816,77.3594,-0.043994
15.847,77.3594,-0.043994
15.878,77.3594,-0.043994
15.909,77.3594,-0.043994
15.941,77.3594,-0.043994
15.971,77.3594,-0.042319
16.001,77.3594,-0.042319
16.033,77.3594,-0.042319
16.064,77.3594,-0.042319
16.096,77.3594,-0.042319
16.127,77.3594,-0.042319
16.157,77.3594,-0.042319
16.187,77.3594,-0.042319
16.219,77.3594,-0.040907
16.250,77.3594,-0.040907
16.281,77.3594,-0.040907
16.312,77.3594,-0.040907
16.342,77.3594,-0.040907
16.374,77.3594,-0.040907
16.405,77.3594,-0.040907
16.437,77.3594,-0.040907
16.467,77.3594,-0.039712
16.500,77.3594,-0.039712
16.530,77.3594,-0.039712
16.561,77.3594,-0.039712
16.592,77.3594,-0.039712
16.624,77.3594,-0.039712
16.655,77.3594,-0.039712
16.687,77.3594,-0.038771
16.717,77.3594,-0.038771
16.748,77.3594,-0.038771
16.779,77.3594,-0.038771
16.811,77.3594,-0.038771
16.840,77.3594,-0.038771
16.872,77.3594,-0.038771
16.903,77.3594,-0.038771
16.934,77.3594,-0.038771
16.965,77.3594,-0.037971
16.996,77.3594,-0.037971
17.028,77.3594,-0.037971
17.059,77.3594,-0.037971
17.089,77.3594,-0.037971
17.120,77.3594,-0.037971
17.151,77.3594,-0.037971
17.184,77.3594,-0.037971
17.212,77.3594,-0.037265
17.242,77.3594,-0.037265
17.273,77.3594,-0.037265
17.304,77.3594,-0.037265
17.335,77.3594,-0.037265
17.365,77.3594,-0.037265
17.396,77.3594,-0.037265
17.427,77.3594,-0.037265
17.458,77.3594,-0.036606
17.489,77.3594,-0.036606
17.520,77.3594,-0.036606
17.550,77.3594,-0.036606
17.581,77.3594,-0.036606
17.612,77.3594,-0.036606
17.642,77.3594,-0.036606
17.673,77.3594,-0.036606
17.705,77.3594,-0.035957
17.736,77.3594,-0.035957
17.767,77.3594,-0.035957
17.798,77.3594,-0.035957
17.828,77.3594,-0.035957
17.859,77.3594,-0.035957
17.890,77.3594,-0.035957
17.921,77.3594,-0.035957
17.952,77.3594,-0.035411
17.985,77.3594,-0.035411
18.014,77.3594,-0.035411
18.045,77.3594,-0.035411
18.076,77.3594,-0.035411
18.107,77.3594,-0.035411
18.139,77.3594,-0.035411
18.172,77.3594,-0.035411
18.200,77.3594,-0.034960
18.232,77.3594,-0.034960
18.263,77.3594,-0.034960
18.294,77.3594,-0.034960
18.328,77.3594,-0.034960
18.357,77.3594,-0.034960
18.387,77.3594,-0.034960
18.419,77.3594,-0.034960
18.449,77.3594,-0.034960
18.480,77.3594,-0.034489
18.511,77.3594,-0.034489
18.542,77.3594,-0.034489
18.573,77.3594,-0.034489
18.604,77.3594,-0.034489
18.635,77.3594,-0.034489
18.666,77.3594,-0.034489
18.697,77.3594,-0.034084
18.728,77.3594,-0.034084
18.760,77.3594,-0.034084
18.792,77.3594,-0.034084
18.823,77.3594,-0.034084
18.853,77.3594,-0.034084
18.885,77.3594,-0.034084
18.916,77.3594,-0.034084
18.948,77.3594,-0.033764
18.978,77.3594,-0.033764
19.009,77.3594,-0.033764
19.040,77.3594,-0.033764
19.071,77.3594,-0.033764
19.102,77.3594,-0.033764
19.133,77.3594,-0.033764
19.165,77.3594,-0.033764
19.196,77.3594,-0.033322
19.226,77.3594,-0.033322
19.257,77.3594,-0.033322
19.289,77.3594,-0.033322
19.320,77.3594,-0.033322
19.351,77.3594,-0.033322
19.383,77.3594,-0.033322
19.415,77.3594,-0.033322
19.447,77.3594,-0.033322
19.476,77.3594,-0.033322
19.510,77.3594,-0.032955
19.539,77.3594,-0.032955
19.570,77.3594,-0.032955
19.600,77.3588,-0.032955
19.632,77.3574,-0.032955
19.663,77.3553,-0.032955
19.693,77.3524,-0.032955
19.724,77.3491,-0.032579
19.756,77.3447,-0.032579
19.786,77.3399,-0.032579
19.817,77.3341,-0.032579
19.848,77.3276,-0.032579
19.878,77.3207,-0.032579
19.909,77.3130,-0.032579
19.939,77.3046,-0.032579
19.970,77.2954,-0.029379
20.001,77.2852,-0.029379
20.032,77.2749,-0.029379
20.063,77.2633,-0.029379
20.093,77.2516,-0.029379
20.124,77.2381,-0.029379
20.156,77.2243,-0.029379
20.187,77.2099,-0.029379
20.218,77.1952,-0.019884
20.248,77.1792,-0.019884
20.280,77.1628,-0.019884
20.310,77.1453,-0.019884
20.341,77.1278,-0.019884
20.372,77.1088,-0.019884
20.403,77.0895,-0.019884
20.434,77.0698,-0.019884
20.466,77.0477,-0.005853
20.497,77.0259,-0.005853
20.528,77.0037,-0.005853
20.560,76.9804,-0.005853
20.591,76.9560,-0.005853
20.622,76.9315,-0.005853
20.652,76.9068,-0.005853
20.683,76.8810,-0.005853
20.714,76.8539,0.007811
20.745,76.8264,0.007811
20.776,76.7988,0.007811
20.807,76.7696,0.007811
20.838,76.7397,0.007811
20.869,76.7092,0.007811
20.900,76.6790,0.007811
20.930,76.6475,0.007811
20.962,76.6135,0.017306
20.994,76.5801,0.017306
21.025,76.5452,0.017306
21.056,76.5109,0.017306
21.087,76.4761,0.017306
21.118,76.4390,0.017306
21.148,76.4022,0.017306
21.180,76.3652,0.017306
21.211,76.3258,0.022726
21.240,76.2886,0.022726
21.272,76.2482,0.022726
21.302,76.2089,0.022726
21.334,76.1663,0.022726
21.364,76.1255,0.022726
21.394,76.0842,0.022726
21.426,76.0398,0.022726
21.458,75.9934,0.022726
21.490,75.9480,0.027930
21.520,75.9027,0.027930
21.551,75.8578,0.027930
21.583,75.8096,0.027930
21.612,75.7652,0.027930
21.643,75.7179,0.027930
21.674,75.6725,0.027930
21.705,75.6259,0.034179
21.737,75.5788,0.034179
21.769,75.5314,0.034179
21.798,75.4865,0.034179
21.830,75.4389,0.034179
21.860,75.3935,0.034179
21.893,75.3446,0.034179
21.923,75.2995,0.034179
21.955,75.2504,0.038131
21.985,75.2066,0.038131
22.016,75.1601,0.038131
22.046,75.1138,0.038131
22.076,75.0687,0.038131
22.107,75.0226,0.038131
22.137,74.9779,0.038131
22.168,74.9315,0.038131
22.199,74.8851,0.038131
22.230,74.8397,0.038131
22.260,74.7925,0.023912
22.291,74.7472,0.023912
22.322,74.7007,0.023912
22.352,74.6555,0.023912
22.385,74.6068,0.023912
22.414,74.5624,0.023912
22.445,74.5153,0.023912
22.476,74.4700,0.007500
22.507,74.4227,0.007500
22.537,74.3780,0.007500
22.568,74.3313,0.007500
22.600,74.2846,0.007500
22.631,74.2361,0.007500
22.662,74.1896,0.007500
22.694,74.1425,0.007500
22.724,74.0963,0.005966
22.756,74.0502,0.005966
22.787,74.0024,0.005966
22.818,73.9575,0.005966
22.849,73.9111,0.005966
22.879,73.8645,0.005966
22.911,73.8173,0.005966
22.942,73.7704,0.005966
22.974,73.7244,0.005731
23.004,73.6790,0.005731
23.034,73.6371,0.005731
23.066,73.5918,0.005731
23.097,73.5490,0.005731
23.127,73.5075,0.005731
23.158,73.4674,0.005731
23.189,73.4267,0.005731
23.220,73.3874,0.005552
23.251,73.3477,0.005552
23.281,73.3093,0.005552
23.312,73.2719,0.005552
23.344,73.2347,0.005552
23.375,73.1976,0.005552
23.406,73.1619,0.005552
23.437,73.1268,0.005552
23.468,73.0935,0.005505
23.499,73.0597,0.005505
23.531,73.0266,0.005505
23.561,72.9947,0.005505
23.593,72.9634,0.005505
23.624,72.9319,0.005505
23.655,72.9026,0.005505
23.688,72.8723,0.005505
23.718,72.8448,0.005467
23.748,72.8174,0.005467
23.779,72.7911,0.005467
23.810,72.7648,0.005467
23.840,72.7400,0.005467
23.873,72.7146,0.005467
23.903,72.6906,0.005467
23.936,72.6668,0.005467
23.966,72.6440,0.005392
23.998,72.6224,0.005392
24.028,72.6020,0.005392
24.059,72.5816,0.005392
24.090,72.5623,0.005392
24.121,72.5430,0.005392
24.152,72.5249,0.005392
24.184,72.5072,0.005392
24.215,72.4910,0.005355
24.245,72.4752,0.005355
24.275,72.4604,0.005355
24.307,72.4456,0.005355
24.337,72.4323,0.005355
24.368,72.4196,0.005355
24.399,72.4074,0.005355
24.428,72.3960,0.005355
24.460,72.3850,0.005317
24.490,72.3751,0.005317
24.522,72.3656,0.005317
24.552,72.3571,0.005317
24.583,72.3489,0.005317
24.614,72.3419,0.005317
24.645,72.3353,0.005317
24.676,72.3296,0.005317
24.707,72.3245,0.005260
24.738,72.3202,0.005260
24.769,72.3166,0.005260
24.801,72.3136,0.005260
24.830,72.3116,0.005260
24.861,72.3101,0.005260
24.893,72.3095,0.005260
24.923,72.3094,0.005260
24.955,72.3094,0.005260
24.985,72.3094,0.005260
25.017,72.3094,0.005176
25.048,72.3100,0.005176
25.079,72.3112,0.005176
25.110,72.3132,0.005176
25.140,72.3160,0.005176
25.171,72.3194,0.005176
25.202,72.3236,0.005176
25.233,72.3285,0.005157
25.266,72.3344,0.005157
25.295,72.3406,0.005157
25.326,72.3476,0.005157
25.357,72.3555,0.005157
25.388,72.3638,0.005157
25.418,72.3730,0.005157
25.449,72.3831,0.005157
25.479,72.3932,0.005044
25.511,72.4050,0.005044
25.541,72.4168,0.005044
25.572,72.4296,0.005044
25.604,72.4435,0.005044
25.634,72.4573,0.005044
25.664,72.4725,0.005044
