Elapsed Time (s),Position (mm),Force (N)
-0.018,56.2001,-0.039879
0.006,56.2001,-0.039879
0.036,56.2001,-0.039879
0.067,56.2001,-0.037462
0.098,56.2001,-0.035045
0.130,56.2001,-0.032628
0.160,56.2001,-0.029003
0.191,56.2001,-0.029003
0.223,56.2001,-0.029003
0.255,56.2001,-0.031420
0.286,56.2001,-0.030211
0.316,56.2001,-0.026586
0.347,56.2001,-0.030211
0.377,56.2001,-0.033837
0.398,56.2001,-0.032628
0.424,56.2001,-0.032628
0.455,56.2001,-0.026586
0.486,56.2001,-0.030211
0.519,56.2001,-0.026586
0.548,56.2001,-0.026586
0.579,56.2001,-0.026586
0.611,56.2001,-0.027794
0.642,56.2001,-0.031420
0.673,56.2001,-0.021752
0.704,56.2001,-0.021752
0.735,56.2001,-0.029003
0.767,56.2001,-0.029003
0.798,56.2001,-0.022961
0.829,56.2001,-0.024169
0.860,56.2001,-0.027794
0.891,56.2001,-0.024169
0.912,56.2001,-0.024169
0.937,56.2001,-0.022961
0.958,56.2001,-0.026586
0.983,56.2001,-0.026586
1.015,56.2001,-0.026586
1.036,56.2001,-0.025377
1.062,56.2001,-0.025377
1.092,56.2001,-0.025377
1.123,56.2001,-0.021752
1.154,56.2001,-0.021752
1.185,56.2001,-0.021752
1.216,56.2001,-0.022961
1.247,56.2001,-0.027794
1.278,56.2001,-0.027794
1.309,56.2001,-0.027794
1.341,56.2001,-0.021752
1.372,56.2001,-0.021752
1.403,56.2001,-0.025377
1.433,56.2001,-0.020544
1.465,56.2001,-0.019335
1.496,56.2001,-0.021752
1.527,56.2001,-0.022961
1.547,56.2001,-0.024169
1.573,56.2001,-0.022961
1.595,56.2001,-0.022961
1.619,56.2001,-0.020544
1.649,56.2001,-0.024169
1.680,56.2001,-0.025377
1.711,56.2001,-0.024169
1.742,56.2001,-0.022961
1.774,56.2001,-0.020544
1.805,56.2001,-0.020544
1.837,56.2001,-0.018127
1.868,56.2001,-0.022961
1.901,56.2001,-0.024169
1.931,56.2001,-0.019335
1.963,56.2001,-0.019335
1.993,56.2001,-0.020544
2.024,56.2001,-0.020544
2.055,56.2001,-0.019335
2.086,56.2001,-0.020544
2.106,56.2001,-0.020544
2.133,56.2001,-0.024169
2.154,56.2001,-0.019335
2.180,56.2001,-0.019335
2.211,56.2001,-0.020544
2.242,56.2001,-0.022961
2.273,56.2001,-0.022961
2.304,56.2001,-0.021752
2.334,56.2001,-0.020544
2.366,56.2001,-0.024169
2.398,56.2001,-0.025377
2.430,56.2001,-0.022961
2.460,56.2001,-0.020544
2.491,56.2001,-0.020544
2.522,56.2001,-0.018127
2.553,56.2001,-0.015710
2.586,56.2001,-0.021752
2.616,56.2001,-0.020544
2.646,56.2001,-0.019335
2.677,56.2001,-0.016918
2.697,56.2001,-0.026586
2.723,56.2001,-0.026586
2.754,56.2001,-0.024169
2.785,56.2001,-0.016918
2.816,56.2001,-0.020544
2.847,56.2001,-0.020544
2.878,56.2001,-0.019335
2.909,56.2001,-0.022961
2.940,56.2001,-0.022961
2.972,56.2001,-0.020544
3.003,56.2001,-0.020544
3.034,56.2001,-0.013293
3.065,56.2001,-0.013293
3.096,56.2001,-0.025377
3.127,56.2001,-0.021752
3.158,56.2001,-0.020544
3.188,56.2001,-0.019335
3.209,56.2001,-0.020544
3.234,56.2001,-0.018127
3.256,56.2001,-0.016918
3.283,56.2001,-0.016918
3.312,56.2001,-0.022961
3.343,56.2001,-0.021752
3.374,56.2001,-0.022961
3.405,56.2001,-0.022961
3.436,56.2001,-0.021752
3.467,56.2001,-0.013293
3.498,56.2001,-0.016918
3.529,56.2001,-0.018127
3.560,56.2001,-0.020544
3.591,56.2001,-0.020544
3.623,56.2001,-0.021752
3.654,56.2001,-0.019335
3.685,56.2001,-0.020544
3.716,56.2001,-0.018127
3.739,56.2001,-0.021752
3.763,56.2001,-0.021752
3.793,56.2001,-0.022961
3.825,56.2001,-0.015710
3.857,56.2001,-0.016918
3.887,56.2001,-0.019335
3.919,56.2001,-0.019335
3.950,56.2001,-0.016918
3.982,56.2001,-0.020544
4.013,56.2001,-0.021752
4.047,56.2001,-0.022961
4.074,56.2001,-0.020544
4.106,56.2001,-0.020544
4.137,56.2001,-0.016918
4.170,56.2001,-0.019335
4.199,56.2001,-0.016918
4.231,56.2001,-0.018127
4.261,56.2001,-0.018127
4.293,56.2001,-0.013293
4.324,56.2001,-0.014501
4.345,56.2001,-0.015710
4.370,56.2001,-0.014501
4.401,56.2001,-0.016918
4.432,56.2001,-0.019335
4.467,56.2001,-0.022961
4.488,56.2001,-0.022961
4.510,56.2001,-0.018127
4.540,56.2001,-0.016918
4.572,56.2001,-0.015710
4.604,56.2001,-0.015710
4.636,56.2001,-0.015710
4.666,56.2001,-0.018127
4.697,56.2001,-0.024169
4.728,56.2001,-0.024169
4.759,56.2001,-0.015710
4.791,56.2001,-0.022961
4.822,56.2001,-0.022961
4.853,56.2001,-0.016918
4.884,56.2001,-0.016918
4.916,56.2001,-0.020544
4.937,56.2001,-0.020544
4.962,56.2001,-0.020544
4.993,56.2001,-0.020544
5.025,56.2001,-0.021752
5.056,56.2001,-0.021752
5.087,56.2001,-0.016918
5.117,56.2001,-0.022961
5.148,56.2001,-0.018127
5.179,56.2001,-0.016918
5.210,56.2001,-0.014501
5.242,56.2001,-0.021752
5.273,56.2001,-0.024169
5.304,56.2001,-0.021752
5.334,56.2001,-0.018127
5.355,56.2001,-0.022961
5.381,56.2001,-0.020544
5.412,56.2001,-0.019335
5.443,56.2001,-0.018127
5.464,56.2001,-0.018127
5.489,56.2001,-0.018127
5.520,56.2001,-0.018127
5.552,56.2001,-0.018127
5.582,56.2001,-0.016918
5.614,56.2001,-0.015710
5.645,56.2001,-0.015710
5.677,56.2001,-0.014501
5.707,56.2001,-0.024169
5.739,56.2001,-0.022961
5.769,56.2001,-0.016918
5.801,56.2001,-0.013293
5.832,56.2001,-0.018127
5.863,56.2001,-0.016918
5.894,56.2001,-0.022961
5.926,56.2001,-0.024169
5.956,56.2001,-0.021752
5.987,56.2001,-0.020544
6.018,56.2001,-0.018127
6.040,56.2001,-0.019335
6.064,56.2001,-0.018127
6.096,56.2001,-0.014501
6.127,56.2001,-0.020544
6.160,56.2001,-0.021752
6.189,56.2001,-0.019335
6.221,56.2001,-0.015710
6.251,56.2001,-0.015710
6.282,56.2001,-0.019335
6.313,56.2001,-0.019335
6.345,56.2001,-0.018127
6.375,56.2001,-0.019335
6.406,56.2001,-0.016918
6.438,56.2001,-0.020544
6.469,56.2001,-0.019335
6.500,56.2001,-0.019335
6.532,56.2001,-0.020544
6.562,56.2001,-0.019335
6.584,56.2001,-0.018127
6.609,56.2001,-0.015710
6.641,56.2001,-0.018127
6.672,56.2001,-0.018127
6.704,56.2001,-0.015710
6.734,56.2001,-0.014501
6.764,56.2001,-0.016918
6.796,56.2001,-0.018127
6.827,56.2001,-0.019335
6.858,56.2001,-0.021752
6.891,56.2001,-0.020544
6.921,56.2001,-0.018127
6.952,56.2001,-0.021752
6.984,56.2001,-0.021752
7.005,56.2001,-0.018127
7.029,56.2001,-0.020544
7.062,56.2001,-0.020544
7.095,56.2001,-0.020544
7.127,56.2001,-0.016918
7.156,56.2001,-0.020544
7.187,56.2001,-0.022961
7.217,56.2001,-0.020544
7.237,56.2001,-0.019335
7.264,56.2001,-0.020544
7.285,56.2001,-0.016918
7.311,56.2001,-0.013293
7.342,56.2001,-0.014501
7.372,56.2001,-0.019335
7.404,56.2001,-0.018127
7.434,56.2001,-0.019335
7.466,56.2001,-0.019335
7.498,56.2001,-0.018127
7.528,56.2001,-0.019335
7.560,56.2001,-0.019335
7.591,56.2001,-0.016918
7.622,56.2001,-0.016918
7.653,56.2001,-0.014501
7.685,56.2001,-0.016918
7.716,56.2001,-0.018127
7.748,56.2001,-0.015710
7.779,56.2001,-0.019335
7.810,56.2001,-0.016918
7.841,56.2001,-0.016918
7.872,56.2001,-0.016918
7.893,56.2001,-0.016918
7.918,56.2001,-0.014501
7.949,56.2001,-0.015710
7.979,56.2001,-0.016918
8.011,56.2001,-0.019335
8.041,56.2001,-0.020544
8.072,56.2001,-0.012084
8.104,56.2001,-0.012084
8.134,56.2001,-0.018127
8.165,56.2001,-0.014501
8.196,56.2001,-0.018127
8.227,56.2001,-0.021752
8.257,56.2001,-0.019335
8.288,56.2001,-0.019335
8.309,56.2001,-0.015710
8.334,56.2001,-0.015710
8.366,56.2001,-0.019335
8.396,56.2001,-0.018127
8.426,56.2001,-0.012084
8.458,56.2001,-0.013293
8.490,56.2001,-0.020544
8.521,56.2001,-0.019335
8.553,56.2001,-0.018127
8.583,56.2001,-0.018127
8.604,56.2001,-0.018127
8.631,56.2001,-0.015710
8.661,56.2001,-0.015710
8.691,56.2001,-0.019335
8.722,56.2001,-0.020544
8.753,56.2001,-0.020544
8.785,56.2001,-0.016918
8.816,56.2001,-0.015710
8.848,56.2001,-0.016918
8.879,56.2001,-0.018127
8.911,56.2001,-0.018127
8.941,56.2001,-0.018127
8.972,56.2001,-0.018127
9.003,56.2001,-0.019335
9.035,56.2001,-0.018127
9.065,56.2001,-0.019335
9.095,56.2001,-0.015710
9.116,56.2001,-0.014501
9.142,56.2001,-0.014501
9.173,56.2001,-0.019335
9.203,56.2001,-0.019335
9.234,56.2001,-0.015710
9.265,56.2001,-0.014501
9.297,56.2001,-0.018127
9.327,56.2001,-0.014501
9.360,56.2001,-0.012084
9.390,56.2001,-0.016918
9.421,56.2001,-0.016918
9.452,56.2001,-0.016918
9.483,56.2001,-0.015710
9.514,56.2001,-0.026586
9.545,56.2001,-0.020544
9.576,56.2001,-0.013293
9.598,56.2001,-0.014501
9.624,56.2001,-0.016918
9.644,56.2001,-0.018127
9.669,56.2001,-0.016918
9.700,56.2001,-0.019335
9.723,56.2001,-0.020544
9.747,56.2001,-0.019335
9.777,56.2001,-0.016918
9.808,56.2001,-0.018127
9.839,56.2001,-0.021752
9.870,56.2001,-0.018127
9.901,56.2001,-0.016918
9.932,56.2001,-0.018127
9.964,56.2001,-0.018127
9.994,56.2001,-0.015710
10.025,56.2001,-0.015710
10.048,56.2001,-0.015710
10.070,56.2001,-0.015710
10.101,56.2001,-0.015710
10.133,56.2001,-0.019335
10.153,56.2001,-0.019335
10.179,56.2001,-0.018127
10.211,56.2001,-0.015710
10.242,56.2001,-0.015710
10.262,56.2001,-0.018127
10.289,56.2001,-0.020544
10.310,56.2001,-0.024169
10.335,56.2001,-0.024169
10.366,56.2001,-0.015710
10.398,56.2001,-0.019335
10.428,56.2001,-0.021752
10.460,56.2001,-0.019335
10.492,56.2001,-0.015710
10.522,56.2001,-0.016918
10.553,56.2001,-0.018127
10.584,56.2001,-0.018127
10.614,56.2001,-0.016918
10.645,56.2001,-0.018127
10.677,56.2001,-0.018127
10.707,56.2001,-0.015710
10.738,56.2001,-0.019335
10.758,56.2001,-0.020544
10.784,56.2001,-0.022961
10.805,56.2001,-0.019335
10.831,56.2001,-0.014501
10.852,56.2001,-0.014501
10.878,56.2001,-0.018127
10.909,56.2001,-0.018127
10.941,56.2001,-0.014501
10.972,56.2001,-0.013293
11.007,56.2001,-0.019335
11.028,56.2001,-0.019335
11.049,56.2001,-0.016918
11.081,56.2001,-0.018127
11.113,56.2001,-0.016918
11.145,56.2001,-0.016918
11.176,56.1574,-0.018127
11.207,55.9380,0.014501
11.237,55.7101,0.018127
11.267,55.5072,0.027794
11.299,55.2800,0.068882
11.330,55.0592,0.108760
11.361,54.8342,0.128095
11.392,54.6091,0.174016
11.413,54.4684,0.174016
11.438,54.2826,0.201811
11.469,54.0633,0.252566
11.500,53.8439,0.270692
11.530,53.6275,0.271901
11.562,53.3980,0.247732
11.593,53.1759,0.049546
11.625,52.9516,0.010876
11.655,52.7350,0.004834
11.686,52.5143,0.004834
11.717,52.2864,0.004834
11.748,52.0714,0.002417
11.779,51.8434,0.004834
11.810,51.6255,0.000000
11.842,51.3968,0.002417
11.872,51.1804,0.001208
11.905,50.9517,0.003625
11.935,50.7252,0.000000
11.960,50.5559,0.001208
11.996,50.2966,0.002417
12.027,50.1501,0.006042
12.057,50.1501,-0.019335
12.088,50.1501,-0.004834
12.120,50.1501,0.004834
12.152,50.1501,0.002417
12.183,50.1501,0.000000
12.215,50.1501,0.001208
12.246,50.3185,-0.003625
12.278,50.5479,-0.042296
12.309,50.7766,-0.004834
12.340,50.9901,0.003625
12.371,51.2167,-0.001208
12.402,51.4381,-0.002417
12.434,51.6639,0.001208
12.464,51.8861,0.000000
12.495,52.1005,-0.001208
12.516,52.2512,-0.002417
12.542,52.4442,-0.002417
12.563,52.5899,-0.001208
12.589,52.7671,0.001208
12.620,52.9936,-0.001208
12.650,53.2058,0.002417
12.681,53.4302,0.000000
12.712,53.6509,-0.002417
12.743,53.8717,-0.007251
12.774,54.0910,-0.006042
12.805,54.3174,-0.002417
12.835,54.5296,-0.007251
12.867,54.7547,-0.007251
12.900,54.9926,-0.006042
12.929,55.2027,-0.014501
12.962,55.4343,-0.014501
12.991,55.6436,-0.022961
13.021,55.8629,-0.022961
13.053,56.0858,-0.042296
13.073,56.1501,-0.042296
13.099,56.1501,-0.037462
13.121,56.1501,-0.042296
13.145,56.1501,-0.048338
13.176,56.1501,-0.045921
13.208,56.1501,-0.038670
13.238,56.1501,-0.038670
13.270,56.1501,-0.035045
13.301,56.1501,-0.038670
13.333,56.1501,-0.036253
13.365,56.1501,-0.039879
13.396,56.1501,-0.039879
13.426,56.1501,-0.036253
13.460,56.1501,-0.035045
13.487,56.1501,-0.032628
13.518,56.1501,-0.030211
13.549,56.1501,-0.026586
13.570,56.1501,-0.026586
13.596,56.1501,-0.027794
13.617,56.1501,-0.027794
13.646,56.1501,-0.030211
13.667,56.1501,-0.030211
13.690,56.1501,-0.030211
13.720,56.1501,-0.029003
13.751,56.1501,-0.026586
13.783,56.1501,-0.026586
13.813,56.1501,-0.027794
13.845,56.1501,-0.026586
13.876,56.1501,-0.025377
13.907,56.1501,-0.029003
13.938,56.1501,-0.024169
13.971,56.1501,-0.026586
14.001,56.1501,-0.026586
14.032,56.1501,-0.026586
14.064,56.1501,-0.027794
14.095,56.1501,-0.026586
14.126,56.1501,-0.027794
14.156,56.1501,-0.021752
14.177,56.1501,-0.022961
14.202,56.1501,-0.022961
14.233,56.1501,-0.027794
14.264,56.1501,-0.026586
14.295,56.1501,-0.026586
14.326,56.1501,-0.025377
14.358,56.1501,-0.022961
14.389,56.1501,-0.027794
14.419,56.1501,-0.024169
14.450,56.1501,-0.020544
14.480,56.1501,-0.022961
14.511,56.1501,-0.020544
14.543,56.1501,-0.019335
14.573,56.1501,-0.021752
14.605,56.1501,-0.025377
14.637,56.1501,-0.022961
14.668,56.1501,-0.022961
14.689,56.1501,-0.022961
14.714,56.1501,-0.025377
14.746,56.1501,-0.021752
14.775,56.1501,-0.020544
14.806,56.1501,-0.024169
14.837,56.1501,-0.025377
14.868,56.1501,-0.024169
14.899,56.1501,-0.024169
14.931,56.1501,-0.021752
14.962,56.1501,-0.021752
14.994,56.1501,-0.027794
15.026,56.1501,-0.024169
15.056,56.1501,-0.020544
15.088,56.1501,-0.019335
15.120,56.1501,-0.019335
15.149,56.1501,-0.025377
15.172,56.1501,-0.025377
15.196,56.1501,-0.020544
15.228,56.1501,-0.019335
15.258,56.1501,-0.019335
15.288,56.1501,-0.021752
15.319,56.1501,-0.025377
15.350,56.1501,-0.022961
15.382,56.1501,-0.020544
15.412,56.1501,-0.019335
15.443,56.1501,-0.022961
15.474,56.1501,-0.019335
15.505,56.1501,-0.021752
15.536,56.1501,-0.024169
15.566,56.1501,-0.019335
15.597,56.1501,-0.016918
15.628,56.1501,-0.022961
15.648,56.1501,-0.021752
15.674,56.1501,-0.022961
15.704,56.1501,-0.020544
15.735,56.1501,-0.018127
15.755,56.1501,-0.018127
15.782,56.1501,-0.021752
15.803,56.1501,-0.024169
15.828,56.1501,-0.024169
15.860,56.1501,-0.020544
15.890,56.1501,-0.022961
15.921,56.1501,-0.021752
15.951,56.1501,-0.016918
15.982,56.1501,-0.014501
16.013,56.1501,-0.025377
16.044,56.1501,-0.025377
16.074,56.1501,-0.015710
16.106,56.1501,-0.020544
16.137,56.1501,-0.024169
16.168,56.1501,-0.021752
16.200,56.1501,-0.022961
16.230,56.1501,-0.020544
16.260,56.1501,-0.020544
16.292,56.1501,-0.020544
16.323,56.1501,-0.020544
16.354,56.1501,-0.019335
16.386,56.1501,-0.018127
16.407,56.1501,-0.018127
16.430,56.1501,-0.016918
16.460,56.1501,-0.019335
16.491,56.1501,-0.024169
16.523,56.1501,-0.020544
16.554,56.1501,-0.018127
16.585,56.1501,-0.020544
16.616,56.1501,-0.021752
16.647,56.1501,-0.018127
16.677,56.1501,-0.016918
16.709,56.1501,-0.022961
16.740,56.1501,-0.015710
16.771,56.1501,-0.014501
16.803,56.1501,-0.016918
16.834,56.1501,-0.020544
16.866,56.1501,-0.019335
16.898,56.1501,-0.020544
16.927,56.1501,-0.020544
16.958,56.1501,-0.015710
16.979,56.1501,-0.020544
17.004,56.1501,-0.020544
17.035,56.1501,-0.016918
17.066,56.1501,-0.021752
17.097,56.1501,-0.018127
17.128,56.1501,-0.016918
17.159,56.1501,-0.021752
17.191,56.1501,-0.020544
17.223,56.1501,-0.022961
17.253,56.1501,-0.021752
17.286,56.1501,-0.020544
17.316,56.1501,-0.019335
17.348,56.1501,-0.018127
17.379,56.1501,-0.018127
17.411,56.1501,-0.020544
17.441,56.1501,-0.015710
17.473,56.1501,-0.019335
17.503,56.1501,-0.019335
17.535,56.1501,-0.019335
17.567,56.1501,-0.015710
17.587,56.1501,-0.014501
17.614,56.1501,-0.019335
17.634,56.1501,-0.018127
17.660,56.1501,-0.018127
17.690,56.1501,-0.021752
17.721,56.1501,-0.014501
17.752,56.1501,-0.024169
17.783,56.1501,-0.024169
17.814,56.1501,-0.015710
17.846,56.1501,-0.016918
17.877,56.1501,-0.020544
17.909,56.1501,-0.020544
17.942,56.1501,-0.018127
17.970,56.1501,-0.020544
18.003,56.1501,-0.020544
18.035,56.1501,-0.014501
18.064,56.1501,-0.019335
18.095,56.1501,-0.021752
18.126,56.1501,-0.018127
18.147,56.1501,-0.018127
18.172,56.1501,-0.016918
18.204,56.1501,-0.019335
18.235,56.1501,-0.018127
18.267,56.1501,-0.018127
18.298,56.1501,-0.018127
18.329,56.1501,-0.021752
18.360,56.1501,-0.016918
18.381,56.1501,-0.014501
18.408,56.1501,-0.015710
18.438,56.1501,-0.018127
18.469,56.1501,-0.018127
18.500,56.1501,-0.022961
18.532,56.1501,-0.020544
18.563,56.1501,-0.019335
18.594,56.1501,-0.019335
18.624,56.1501,-0.019335
18.655,56.1501,-0.022961
18.687,56.1501,-0.018127
18.718,56.1501,-0.015710
18.749,56.1501,-0.022961
18.781,56.1501,-0.019335
18.811,56.1501,-0.019335
18.842,56.1501,-0.016918
18.873,56.1501,-0.021752
18.905,56.1501,-0.022961
18.925,56.1501,-0.016918
18.952,56.1501,-0.016918
18.973,56.1501,-0.016918
18.999,56.1501,-0.016918
19.023,56.1501,-0.016918
19.046,56.1501,-0.018127
19.078,56.1501,-0.016918
19.108,56.1501,-0.018127
19.139,56.1501,-0.018127
19.170,56.1501,-0.018127
19.200,56.1501,-0.014501
19.232,56.1501,-0.016918
19.264,56.1501,-0.016918
19.294,56.1501,-0.020544
19.315,56.1501,-0.020544
19.340,56.1501,-0.022961
19.371,56.1501,-0.019335
19.402,56.1501,-0.020544
19.433,56.1501,-0.016918
19.465,56.1501,-0.018127
19.485,56.1501,-0.018127
19.510,56.1501,-0.015710
19.541,56.1501,-0.015710
19.573,56.1501,-0.018127
19.604,56.1501,-0.018127
19.636,56.1501,-0.019335
19.667,56.1501,-0.016918
19.697,56.1501,-0.018127
19.729,56.1501,-0.016918
19.760,56.1501,-0.020544
19.791,56.1501,-0.014501
19.822,56.1501,-0.014501
19.852,56.1501,-0.019335
19.884,56.1501,-0.019335
19.914,56.1501,-0.018127
19.944,56.1501,-0.019335
19.966,56.1501,-0.019335
19.991,56.1501,-0.018127
20.021,56.1501,-0.020544
20.053,56.1501,-0.019335
20.084,56.1501,-0.016918
20.115,56.1501,-0.019335
20.146,56.1501,-0.019335
20.176,56.1501,-0.018127
20.207,56.1501,-0.014501
20.237,56.1501,-0.018127
20.267,56.1501,-0.019335
20.298,56.1501,-0.019335
20.329,56.1501,-0.016918
20.361,56.1501,-0.014501
20.382,56.1501,-0.014501
20.408,56.1501,-0.016918
20.428,56.1501,-0.015710
20.453,56.1501,-0.016918
20.484,56.1501,-0.016918
20.514,56.1501,-0.019335
20.545,56.1501,-0.018127
20.566,56.1501,-0.021752
20.591,56.1501,-0.021752
20.622,56.1501,-0.020544
20.653,56.1501,-0.018127
20.684,56.1501,-0.014501
20.715,56.1501,-0.018127
20.745,56.1501,-0.018127
20.776,56.1501,-0.015710
20.806,56.1501,-0.015710
20.836,56.1501,-0.024169
20.867,56.1501,-0.021752
20.898,56.1501,-0.016918
20.918,56.1501,-0.015710
20.945,56.1501,-0.016918
20.976,56.1501,-0.016918
21.006,56.1501,-0.022961
21.038,56.1501,-0.019335
21.068,56.1501,-0.016918
21.099,56.1501,-0.019335
21.132,56.1501,-0.015710
21.161,56.1501,-0.016918
21.192,56.1501,-0.020544
21.223,56.1501,-0.020544
21.253,56.1501,-0.014501
21.284,56.1501,-0.019335
21.304,56.1501,-0.019335
21.331,56.1501,-0.020544
21.362,56.1501,-0.015710
21.394,56.1501,-0.018127
21.414,56.1501,-0.016918
21.440,56.1501,-0.016918
21.464,56.1501,-0.016918
21.486,56.1501,-0.015710
21.517,56.1501,-0.016918
21.548,56.1501,-0.018127
21.579,56.1501,-0.016918
21.611,56.1501,-0.020544
21.632,56.1501,-0.020544
21.657,56.1501,-0.019335
21.688,56.1501,-0.019335
21.720,56.1501,-0.016918
21.751,56.1501,-0.014501
21.781,56.1501,-0.019335
21.813,56.1501,-0.013293
21.845,56.1501,-0.014501
21.875,56.1501,-0.018127
21.908,56.1501,-0.015710
21.938,56.1501,-0.012084
21.968,56.1501,-0.015710
21.991,56.1501,-0.018127
22.015,56.1501,-0.015710
22.047,56.1501,-0.015710
22.077,56.1501,-0.015710
22.108,56.1501,-0.019335
22.139,56.1501,-0.014501
22.160,56.1501,-0.018127
22.189,56.1501,-0.018127
22.219,56.1501,-0.019335
22.248,56.1501,-0.014501
22.270,56.1501,-0.013293
22.295,56.1501,-0.014501
22.316,56.1501,-0.021752
22.340,56.1501,-0.021752
22.372,56.1501,-0.016918
22.404,56.1501,-0.014501
22.435,56.1501,-0.013293
22.465,56.1501,-0.016918
22.497,56.1501,-0.014501
22.528,56.1501,-0.016918
22.560,56.1501,-0.015710
22.591,56.1501,-0.019335
22.624,56.1501,-0.018127
22.653,56.1501,-0.021752
22.684,56.1501,-0.021752
22.715,56.1501,-0.018127
22.745,56.1501,-0.015710
22.776,56.1501,-0.019335
22.810,56.1501,-0.016918
22.839,56.1501,-0.016918
22.859,56.1501,-0.016918
22.886,56.1501,-0.016918
22.908,56.1501,-0.015710
22.933,56.1501,-0.020544
22.963,56.1501,-0.019335
22.995,56.1501,-0.020544
23.028,56.1501,-0.015710
23.058,56.1501,-0.015710
23.088,56.1501,-0.019335
23.118,56.1501,-0.019335
23.148,56.1501,-0.020544
23.178,56.1501,-0.018127
23.210,56.1501,-0.018127
23.240,56.1501,-0.016918
23.273,56.1501,-0.016918
23.303,56.1501,-0.015710
23.334,56.1501,-0.015710
23.358,56.1501,-0.016918
23.380,56.1501,-0.016918
23.401,56.1501,-0.016918
23.426,56.1501,-0.016918
23.456,56.1501,-0.015710
23.487,56.1501,-0.018127
23.518,56.1501,-0.015710
23.549,56.1501,-0.018127
23.581,56.1501,-0.015710
23.611,56.1501,-0.018127
23.642,56.1501,-0.016918
23.673,56.1501,-0.020544
23.705,56.1501,-0.014501
23.737,56.1501,-0.018127
23.767,56.1501,-0.016918
23.799,56.1501,-0.016918
23.831,56.1501,-0.021752
23.863,56.1501,-0.016918
23.895,56.1501,-0.014501
23.925,56.1501,-0.013293
23.956,56.1501,-0.016918
