Elapsed Time (s),Position (mm),Force (N)
-0.018,64.0999,-0.021752
0.000,64.0999,-0.020544
0.016,64.0999,-0.020544
0.031,64.0999,-0.024169
0.046,64.0999,-0.020544
0.062,64.0999,-0.020544
0.078,64.0999,-0.025377
0.094,64.0999,-0.025377
0.110,64.0999,-0.032628
0.134,64.0999,-0.020544
0.158,64.0999,-0.024169
0.175,64.0999,-0.025377
0.191,64.0999,-0.029003
0.207,64.0999,-0.029003
0.223,64.0999,-0.019335
0.238,64.0999,-0.026586
0.256,64.0999,-0.026586
0.271,64.0999,-0.016918
0.288,64.0999,-0.018127
0.302,64.0999,-0.016918
0.320,64.0999,-0.021752
0.335,64.0999,-0.021752
0.352,64.0999,-0.025377
0.379,64.0999,-0.018127
0.396,64.0999,-0.013293
0.411,64.0999,-0.020544
0.427,64.0999,-0.020544
0.443,64.0999,-0.020544
0.459,64.0999,-0.022961
0.475,64.0999,-0.022961
0.491,64.0999,-0.024169
0.509,64.0999,-0.016918
0.524,64.0999,-0.019335
0.541,64.0999,-0.019335
0.555,64.0999,-0.020544
0.572,64.0999,-0.022961
0.588,64.0999,-0.022961
0.604,64.0999,-0.019335
0.619,64.0999,-0.015710
0.635,64.0999,-0.018127
0.651,64.0999,-0.018127
0.667,64.0999,-0.020544
0.684,64.0999,-0.018127
0.700,64.0999,-0.022961
0.715,64.0999,-0.021752
0.731,64.0999,-0.018127
0.748,64.0999,-0.016918
0.763,64.0999,-0.022961
0.779,64.0999,-0.025377
0.795,64.0999,-0.024169
0.812,64.0999,-0.022961
0.827,64.0999,-0.016918
0.843,64.0999,-0.016918
0.860,64.0999,-0.019335
0.876,64.0999,-0.014501
0.890,64.0999,-0.020544
0.922,64.0999,-0.021752
0.938,64.0999,-0.015710
0.954,64.0999,-0.014501
0.970,64.0999,-0.018127
0.987,64.0999,-0.013293
1.002,64.0999,-0.014501
1.020,64.0999,-0.015710
1.034,64.0999,-0.024169
1.051,64.0999,-0.016918
1.067,64.0999,-0.015710
1.086,64.0999,-0.019335
1.098,64.0999,-0.015710
1.114,64.0999,-0.015710
1.130,64.0999,-0.018127
1.146,64.0999,-0.018127
1.162,64.0999,-0.013293
1.178,64.0999,-0.018127
1.194,64.0999,-0.019335
1.210,64.0999,-0.021752
1.226,64.0999,-0.016918
1.243,64.0999,-0.019335
1.258,64.0999,-0.014501
1.274,64.0999,-0.019335
1.293,64.0999,-0.020544
1.306,64.0999,-0.015710
1.322,64.0999,-0.015710
1.338,64.0999,-0.018127
1.354,64.0999,-0.020544
1.370,64.0999,-0.016918
1.386,64.0999,-0.013293
1.404,64.0999,-0.015710
1.418,64.0999,-0.016918
1.434,64.0999,-0.016918
1.463,64.0999,-0.016918
1.478,64.0999,-0.015710
1.494,64.0999,-0.013293
1.510,64.0999,-0.018127
1.526,64.0999,-0.014501
1.543,64.0999,-0.014501
1.561,64.0999,-0.010876
1.574,64.0999,-0.008459
1.591,64.0999,-0.013293
1.607,64.0999,-0.016918
1.624,64.0999,-0.020544
1.638,64.0999,-0.016918
1.654,64.0999,-0.016918
1.671,64.0999,-0.016918
1.686,64.0999,-0.016918
1.702,64.0999,-0.021752
1.718,64.0999,-0.020544
1.734,64.0999,-0.020544
1.750,64.0999,-0.015710
1.769,64.0999,-0.018127
1.782,64.0999,-0.016918
1.798,64.0999,-0.012084
1.814,64.0999,-0.012084
1.831,64.0999,-0.014501
1.846,64.0999,-0.013293
1.863,64.0999,-0.016918
1.878,64.0999,-0.018127
1.897,64.0999,-0.016918
1.909,64.0999,-0.015710
1.925,64.0999,-0.015710
1.942,64.0999,-0.015710
1.958,64.0999,-0.016918
1.974,64.0999,-0.015710
1.990,64.0999,-0.010876
2.006,64.0999,-0.009668
2.022,64.0999,-0.007251
2.038,64.0999,-0.009668
2.054,64.0999,-0.009668
2.070,64.0999,-0.016918
2.086,64.0999,-0.019335
2.101,64.0999,-0.020544
2.118,64.0999,-0.009668
2.133,64.0999,-0.009668
2.150,64.0999,-0.007251
2.165,64.0999,-0.007251
2.181,64.0999,-0.016918
2.197,64.0999,-0.015710
2.213,64.0999,-0.010876
2.230,64.0999,-0.013293
2.246,64.0999,-0.009668
2.261,64.0999,-0.019335
2.277,64.0999,-0.020544
2.293,64.0999,-0.018127
2.309,64.0999,-0.015710
2.326,64.0999,-0.012084
2.342,64.0999,-0.008459
2.357,64.0999,-0.016918
2.374,64.0999,-0.016918
2.390,64.0999,-0.012084
2.407,64.0999,-0.014501
2.424,64.0999,-0.013293
2.438,64.0999,-0.015710
2.453,64.0999,-0.010876
2.469,64.0999,-0.012084
2.486,64.0999,-0.012084
2.502,64.0999,-0.009668
2.520,64.0999,-0.013293
2.544,64.0999,-0.013293
2.560,64.0999,-0.012084
2.577,64.0999,-0.018127
2.592,64.0999,-0.016918
2.609,64.0999,-0.016918
2.626,64.0999,-0.015710
2.642,64.0999,-0.015710
2.656,64.0999,-0.016918
2.673,64.0999,-0.013293
2.689,64.0999,-0.013293
2.704,64.0999,-0.013293
2.721,64.0999,-0.012084
2.743,64.0999,-0.016918
2.753,64.0999,-0.016918
2.769,64.0999,-0.019335
2.784,64.0999,-0.019335
2.801,64.0999,-0.015710
2.816,64.0999,-0.012084
2.832,64.0999,-0.013293
2.854,64.0999,-0.016918
2.864,64.0999,-0.020544
2.881,64.0999,-0.010876
2.897,64.0999,-0.012084
2.913,64.0999,-0.014501
2.928,64.0999,-0.013293
2.944,64.0999,-0.013293
2.960,64.0999,-0.013293
2.978,64.0999,-0.016918
2.993,64.0999,-0.018127
3.009,64.0999,-0.018127
3.024,64.0999,-0.019335
3.040,64.0999,-0.013293
3.057,64.0999,-0.013293
3.072,64.0999,-0.014501
3.096,64.0999,-0.019335
3.111,64.0999,-0.019335
3.127,64.0999,-0.013293
3.143,64.0999,-0.015710
3.159,64.0999,-0.014501
3.175,64.0999,-0.019335
3.191,64.0999,-0.016918
3.207,64.0999,-0.015710
3.225,64.0999,-0.016918
3.239,64.0999,-0.019335
3.255,64.0999,-0.012084
3.271,64.0999,-0.018127
3.287,64.0999,-0.013293
3.304,64.0999,-0.015710
3.322,64.0999,-0.014501
3.335,64.0999,-0.016918
3.352,64.0999,-0.007251
3.368,64.0999,-0.004834
3.384,64.0999,-0.004834
3.399,64.0999,-0.010876
3.415,64.0999,-0.010876
3.431,64.0999,-0.015710
3.446,64.0999,-0.016918
3.465,64.0999,-0.014501
3.479,64.0999,-0.015710
3.495,64.0999,-0.009668
3.510,64.0999,-0.012084
3.531,64.0999,-0.016918
3.543,64.0999,-0.014501
3.558,64.0999,-0.015710
3.575,64.0999,-0.010876
3.596,64.0999,-0.012084
3.607,64.0999,-0.013293
3.623,64.0999,-0.006042
3.638,64.0999,-0.018127
3.662,64.0999,-0.014501
3.678,64.0999,-0.010876
3.694,64.0999,-0.013293
3.710,64.0999,-0.019335
3.726,64.0999,-0.019335
3.742,64.0999,-0.014501
3.758,64.0999,-0.016918
3.774,64.0999,-0.016918
3.791,64.0999,-0.024169
3.807,64.0999,-0.021752
3.823,64.0999,-0.013293
3.838,64.0999,-0.013293
3.860,64.0999,-0.019335
3.882,64.0999,-0.015710
3.902,64.0999,-0.018127
3.919,64.0999,-0.015710
3.935,64.0999,-0.008459
3.950,64.0999,-0.012084
3.965,64.0999,-0.013293
3.985,64.0999,-0.013293
3.998,64.0999,-0.016918
4.014,64.0999,-0.014501
4.029,64.0999,-0.015710
4.046,64.0999,-0.010876
4.063,64.0999,-0.010876
4.079,64.0999,-0.015710
4.094,64.0999,-0.015710
4.110,64.0999,-0.015710
4.125,64.0999,-0.015710
4.141,64.0999,-0.013293
4.158,64.0999,-0.009668
4.184,64.0999,-0.008459
4.200,64.0999,-0.016918
4.215,64.0999,-0.010876
4.232,64.0999,-0.013293
4.247,64.0999,-0.009668
4.263,64.0999,-0.009668
4.279,64.0999,-0.010876
4.296,64.0999,-0.015710
4.311,64.0999,-0.013293
4.328,64.0999,-0.012084
4.343,64.0999,-0.012084
4.360,64.0999,-0.013293
4.375,64.0999,-0.012084
4.391,64.0999,-0.015710
4.407,64.0999,-0.014501
4.423,64.0999,-0.014501
4.440,64.0999,-0.009668
4.455,64.0999,-0.009668
4.472,64.0999,-0.014501
4.488,64.0999,-0.013293
4.504,64.0999,-0.009668
4.519,64.0999,-0.013293
4.539,64.0999,-0.013293
4.552,64.0999,-0.013293
4.567,64.0999,-0.014501
4.583,64.0999,-0.018127
4.600,64.0999,-0.022961
4.615,64.0999,-0.009668
4.631,64.0999,-0.010876
4.647,64.0999,-0.014501
4.664,64.0999,-0.009668
4.680,64.0999,-0.014501
4.695,64.0999,-0.008459
4.719,64.0999,-0.013293
4.734,64.0999,-0.013293
4.750,64.0999,-0.013293
4.766,64.0999,-0.013293
4.788,64.0999,-0.014501
4.799,64.0999,-0.015710
4.814,64.0999,-0.015710
4.830,64.0999,-0.013293
4.848,64.0999,-0.010876
4.863,64.0999,-0.004834
4.878,64.0999,-0.015710
4.894,64.0999,-0.010876
4.911,64.0999,-0.010876
4.926,64.0999,-0.012084
4.943,64.0999,-0.010876
4.958,64.0999,-0.013293
4.975,64.0999,-0.013293
4.991,64.0999,-0.006042
5.008,64.0999,-0.013293
5.022,64.0999,-0.021752
5.038,64.0999,-0.008459
5.054,64.0999,-0.012084
5.070,64.0999,-0.009668
5.086,64.0999,-0.013293
5.102,64.0999,-0.014501
5.118,64.0999,-0.016918
5.134,64.0999,-0.019335
5.153,64.0999,-0.015710
5.168,64.0999,-0.016918
5.182,64.0999,-0.012084
5.199,64.0999,-0.012084
5.214,64.0999,-0.006042
5.230,64.0999,-0.008459
5.246,64.0999,-0.015710
5.277,64.0999,-0.012084
5.293,64.0999,-0.014501
5.309,64.0999,-0.012084
5.325,64.0999,-0.010876
5.342,64.0999,-0.010876
5.357,64.0999,-0.008459
5.374,64.0999,-0.008459
5.389,64.0999,-0.016918
5.405,64.0999,-0.016918
5.421,64.0999,-0.016918
5.437,64.0999,-0.009668
5.454,64.0999,-0.009668
5.469,64.0999,-0.013293
5.486,64.0999,-0.016918
5.501,64.0999,-0.015710
5.518,64.0999,-0.014501
5.534,64.0999,-0.014501
5.550,64.0999,-0.012084
5.565,64.0999,-0.012084
5.581,64.0999,-0.016918
5.597,64.0999,-0.009668
5.613,64.0999,-0.009668
5.629,64.0999,-0.012084
5.645,64.0999,-0.010876
5.661,64.0999,-0.013293
5.677,64.0999,-0.013293
5.701,64.0999,-0.013293
5.723,64.0999,-0.015710
5.743,64.0999,-0.016918
5.758,64.0999,-0.013293
5.773,64.0999,-0.018127
5.789,64.0999,-0.013293
5.821,64.0999,-0.009668
5.836,64.0999,-0.016918
5.853,64.0999,-0.013293
5.868,64.0999,-0.012084
5.884,64.0999,-0.016918
5.900,64.0999,-0.018127
5.917,64.0999,-0.013293
5.932,64.0999,-0.010876
5.949,64.0999,-0.010876
5.964,64.0999,-0.016918
5.983,64.0999,-0.009668
5.996,64.0999,-0.010876
6.013,64.0999,-0.009668
6.028,64.0999,-0.010876
6.046,64.0999,-0.016918
6.060,64.0999,-0.018127
6.077,64.0999,-0.016918
6.092,64.0999,-0.012084
6.108,64.0999,-0.010876
6.124,64.0999,-0.013293
6.140,64.0999,-0.014501
6.156,64.0999,-0.014501
6.172,64.0999,-0.009668
6.188,64.0999,-0.003625
6.204,64.0999,-0.012084
6.220,64.0999,-0.012084
6.235,64.0999,-0.012084
6.256,64.0999,-0.012084
6.267,64.0999,-0.007251
6.283,64.0999,-0.016918
6.299,64.0999,-0.010876
6.316,64.0999,-0.012084
6.332,64.0999,-0.013293
6.348,64.0999,-0.010876
6.377,64.0999,-0.012084
6.393,64.0999,-0.014501
6.408,64.0999,-0.015710
6.424,64.0999,-0.013293
6.442,64.0999,-0.010876
6.457,64.0999,-0.010876
6.472,64.0999,-0.006042
6.488,64.0999,-0.016918
6.505,64.0999,-0.016918
6.521,64.0999,-0.010876
6.539,64.0999,-0.010876
6.553,64.0999,-0.012084
6.570,64.0999,-0.012084
6.585,64.0999,-0.012084
6.601,64.0999,-0.013293
6.616,64.0999,-0.013293
6.632,64.0999,-0.015710
6.648,64.0999,-0.012084
6.664,64.0999,-0.007251
6.683,64.0999,-0.010876
6.697,64.0999,-0.010876
6.712,64.0999,-0.012084
6.729,64.0999,-0.010876
6.744,64.0999,-0.012084
6.761,64.0999,-0.012084
6.776,64.0999,-0.008459
6.792,64.0999,-0.012084
6.809,64.0999,-0.016918
6.825,64.0999,-0.015710
6.843,64.0999,-0.016918
6.857,64.0999,-0.014501
6.874,64.0999,-0.015710
6.890,64.0999,-0.018127
6.904,64.0999,-0.013293
6.920,64.0999,-0.006042
6.937,64.0999,-0.009668
6.953,64.0999,-0.014501
6.968,64.0999,-0.014501
6.985,64.0999,-0.014501
7.001,64.0999,-0.010876
7.016,64.0999,-0.010876
7.033,64.0999,-0.010876
7.049,64.0999,-0.014501
7.064,64.0999,-0.014501
7.081,64.0999,-0.013293
7.096,64.0999,-0.013293
7.113,64.0999,-0.008459
7.128,64.0999,-0.008459
7.144,64.0999,-0.008459
7.160,64.0999,-0.006042
7.176,64.0999,-0.010876
7.193,64.0999,-0.015710
7.209,64.0999,-0.009668
7.225,64.0999,-0.009668
7.241,64.0999,-0.013293
7.257,64.0999,-0.013293
7.272,64.0999,-0.008459
7.289,64.0999,-0.008459
7.304,64.0999,-0.010876
7.320,64.0999,-0.007251
7.336,64.0999,-0.009668
7.352,64.0999,-0.007251
7.368,64.0999,-0.014501
7.384,64.0999,-0.014501
7.400,64.0999,-0.013293
7.417,64.0999,-0.014501
7.435,64.0999,-0.007251
7.459,64.0999,-0.014501
7.475,64.0999,-0.014501
7.491,64.0999,-0.014501
7.507,64.0999,-0.019335
7.523,64.0999,-0.014501
7.539,64.0999,-0.009668
7.555,64.0999,-0.014501
7.572,64.0999,-0.015710
7.587,64.0999,-0.008459
7.603,64.0999,-0.013293
7.620,64.0999,-0.012084
7.635,64.0999,-0.012084
7.651,64.0999,-0.009668
7.667,64.0999,-0.012084
7.682,64.0999,-0.012084
7.700,64.0999,-0.009668
7.715,64.0999,-0.009668
7.731,64.0999,-0.012084
7.747,64.0999,-0.010876
7.763,64.0999,-0.010876
7.779,64.0999,-0.015710
7.795,64.0999,-0.015710
7.811,64.0999,-0.006042
7.827,64.0999,-0.015710
7.844,64.0999,-0.015710
7.859,64.0999,-0.018127
7.875,64.0999,-0.018127
7.891,64.0999,-0.010876
7.908,64.0999,-0.009668
7.923,64.0999,-0.009668
7.940,64.0999,-0.008459
7.955,64.0999,-0.021752
7.985,64.0999,-0.014501
8.001,64.0999,-0.009668
8.018,64.0999,-0.007251
8.034,64.0999,-0.004834
8.050,64.0999,-0.009668
8.066,64.0999,-0.009668
8.081,64.0999,-0.015710
8.097,64.0999,-0.009668
8.113,64.0999,-0.012084
8.129,64.0999,-0.009668
8.146,64.0999,-0.009668
8.163,64.0999,-0.016918
8.177,64.0999,-0.015710
8.193,64.0999,-0.013293
8.210,64.0999,-0.012084
8.225,64.0999,-0.016918
8.241,64.0999,-0.012084
8.258,64.0999,-0.012084
8.274,64.0999,-0.013293
8.290,64.0999,-0.013293
8.305,64.0999,-0.010876
8.322,64.0999,-0.013293
8.338,64.0999,-0.009668
8.354,64.0999,-0.010876
8.371,64.0999,-0.013293
8.385,64.0999,-0.008459
8.400,64.0999,-0.008459
8.416,64.0999,-0.012084
8.435,64.0999,-0.012084
8.449,64.0999,-0.012084
8.465,64.0999,-0.013293
8.481,64.0999,-0.010876
8.497,64.0999,-0.010876
8.513,64.0999,-0.012084
8.528,64.0999,-0.019335
8.551,64.0999,-0.014501
8.567,64.0999,-0.012084
8.583,64.0999,-0.009668
8.599,64.0999,-0.014501
8.615,64.0999,-0.013293
8.631,64.0999,-0.009668
8.647,64.0999,-0.015710
8.663,64.0999,-0.019335
8.680,64.0999,-0.014501
8.695,64.0999,-0.014501
8.712,64.0999,-0.008459
8.727,64.0999,-0.009668
8.743,64.0999,-0.010876
8.759,64.0999,-0.010876
8.775,64.0999,-0.013293
8.792,64.0999,-0.008459
8.807,64.0999,-0.014501
8.824,64.0999,-0.016918
8.839,64.0999,-0.014501
8.857,64.0999,-0.014501
8.871,64.0999,-0.010876
8.888,64.0999,-0.016918
8.902,64.0999,-0.009668
8.920,64.0999,-0.009668
8.936,64.0999,-0.013293
8.952,64.0999,-0.013293
8.967,64.0999,-0.013293
8.985,64.0999,-0.013293
8.999,64.0999,-0.008459
9.016,64.0999,-0.014501
9.031,64.0999,-0.010876
9.049,64.0999,-0.010876
9.065,64.0999,-0.009668
9.081,64.0999,-0.016918
9.098,64.0999,-0.013293
9.123,64.0999,-0.008459
9.137,64.0999,-0.009668
9.153,64.0999,-0.010876
9.169,64.0999,-0.015710
9.186,64.0999,-0.013293
9.202,64.0999,-0.009668
9.219,64.0999,-0.012084
9.233,64.0999,-0.015710
9.250,64.0999,-0.014501
9.265,64.0999,-0.014501
9.283,64.0999,-0.010876
9.297,64.0999,-0.009668
9.315,64.0999,-0.009668
9.331,64.0999,-0.014501
9.345,64.0999,-0.014501
9.361,64.0999,-0.016918
9.377,64.0999,-0.009668
9.393,64.0999,-0.009668
9.409,64.0999,-0.008459
9.425,64.0999,-0.008459
9.441,64.0999,-0.013293
9.457,64.0999,-0.014501
9.473,64.0999,-0.003625
9.492,64.0999,-0.013293
9.505,64.0999,-0.009668
9.521,64.0999,-0.009668
9.537,64.0999,-0.010876
9.553,64.0999,-0.015710
9.569,64.0999,-0.018127
9.585,64.0999,-0.007251
9.601,64.0999,-0.006042
9.618,64.0999,-0.015710
9.633,64.0999,-0.009668
9.649,64.0999,-0.010876
9.680,64.0999,-0.014501
9.695,64.0999,-0.014501
9.711,64.0999,-0.014501
9.727,64.0999,-0.014501
9.744,64.0999,-0.008459
9.761,64.0999,-0.020544
9.777,64.0999,-0.020544
9.791,64.0999,-0.015710
9.807,64.0999,-0.015710
9.823,64.0999,-0.010876
9.839,64.0999,-0.009668
9.855,64.0999,-0.010876
9.871,64.0999,-0.009668
9.887,64.0999,-0.012084
9.903,64.0999,-0.010876
9.919,64.0999,-0.012084
9.935,64.0999,-0.012084
9.951,64.0999,-0.012084
9.967,64.0999,-0.013293
9.983,64.0999,-0.012084
9.999,64.0999,-0.012084
10.015,64.0999,-0.013293
10.031,64.0999,-0.006042
10.048,64.0999,-0.015710
10.063,64.0999,-0.006042
10.079,64.0999,-0.007251
10.095,64.0999,-0.013293
10.112,64.0999,-0.015710
10.129,64.0999,-0.016918
10.145,64.0999,-0.016918
10.158,64.0999,-0.014501
10.177,64.0999,-0.014501
10.191,64.0999,-0.010876
10.208,64.0999,-0.013293
10.235,64.0999,-0.016918
10.253,64.0999,-0.013293
10.268,64.0999,-0.014501
10.284,64.0999,-0.014501
10.301,64.0999,-0.009668
10.317,64.0999,-0.012084
10.334,64.0999,-0.012084
10.348,64.0999,-0.014501
10.363,64.0999,-0.012084
10.381,64.0999,-0.008459
10.395,64.0999,-0.008459
10.411,64.0999,-0.006042
10.427,64.0999,-0.009668
10.443,64.0999,-0.015710
10.459,64.0999,-0.010876
10.476,64.0999,-0.009668
10.492,64.0999,-0.009668
10.507,64.0999,-0.007251
10.523,64.0999,-0.009668
10.540,64.0999,-0.010876
10.556,64.0999,-0.014501
10.571,64.0999,-0.007251
10.587,64.0999,-0.010876
10.604,64.0999,-0.013293
10.619,64.0999,-0.013293
10.635,64.0999,-0.009668
10.656,64.0999,-0.012084
10.668,64.0999,-0.009668
10.684,64.0999,-0.009668
10.699,64.0999,-0.013293
10.716,64.0999,-0.014501
10.732,64.0999,-0.013293
10.749,64.0999,-0.013293
10.775,64.0999,-0.013293
10.789,64.0999,-0.009668
10.806,64.0999,-0.012084
10.821,64.0999,-0.009668
10.840,64.0999,-0.013293
10.853,64.0999,-0.013293
10.869,64.0999,-0.009668
10.885,64.0999,-0.013293
10.908,64.0999,-0.010876
10.925,64.0999,-0.014501
10.940,64.0999,-0.013293
10.955,64.0999,-0.009668
10.966,64.0999,-0.013293
10.981,64.0999,-0.016918
10.997,64.0999,-0.010876
11.014,64.0999,-0.010876
11.029,64.0999,-0.010876
11.045,64.0999,-0.010876
11.062,64.0999,-0.009668
11.078,64.0999,-0.003625
11.094,64.0999,-0.009668
11.109,64.0999,-0.010876
11.127,64.0177,0.002417
11.141,63.8521,0.059214
11.157,63.6614,-0.006042
11.173,63.4730,0.048338
11.194,63.2174,0.048338
11.206,63.0829,0.078549
11.221,62.8886,0.105135
11.237,62.7036,0.125679
11.253,62.5057,0.125679
11.270,62.3114,0.166766
11.286,62.1205,0.174016
11.301,61.9380,0.183684
11.318,61.7365,0.172808
11.333,61.5494,0.118428
11.349,61.3621,0.058005
11.365,61.1677,0.003625
11.383,60.9481,0.006042
11.398,60.7705,-0.003625
11.413,60.5917,-0.001208
11.429,60.4021,0.000000
11.446,60.2041,0.000000
11.461,60.0180,-0.001208
11.476,59.8261,0.001208
11.493,59.6341,-0.001208
11.509,59.4410,-0.007251
11.525,59.2441,0.000000
11.541,59.0593,-0.001208
11.557,58.8625,0.000000
11.573,58.6741,0.002417
11.589,58.4785,0.002417
11.605,58.2901,-0.004834
11.623,58.0804,-0.008459
11.638,58.0499,-0.095467
11.654,58.0499,0.000000
11.669,58.0499,-0.003625
11.685,58.0499,-0.007251
11.701,58.0499,0.007251
11.718,58.0499,0.003625
11.733,58.0499,0.003625
11.750,58.0499,-0.001208
11.765,58.0499,-0.003625
11.781,58.0499,0.000000
11.797,58.0499,0.002417
11.814,58.0499,0.002417
11.829,58.0499,-0.003625
11.845,58.0499,-0.006042
11.868,58.0499,-0.002417
11.884,58.1273,-0.042296
11.900,58.3169,-0.010876
11.916,58.5030,-0.001208
11.932,58.6973,0.007251
11.948,58.8941,0.012084
11.964,59.0789,-0.010876
11.981,59.2866,0.003625
11.997,59.4725,-0.012084
12.013,59.6741,0.003625
12.028,59.8458,-0.001208
12.044,60.0450,-0.001208
12.060,60.2381,0.000000
12.076,60.4217,0.000000
12.092,60.6245,-0.008459
12.108,60.8057,0.003625
12.124,61.0001,-0.004834
12.140,61.1909,0.000000
12.156,61.3925,-0.003625
12.173,61.5905,-0.004834
12.189,61.7766,-0.006042
12.204,61.9565,-0.012084
12.221,62.1689,-0.006042
12.236,62.3549,-0.004834
12.252,62.5373,-0.008459
12.267,62.7257,-0.013293
12.286,62.9393,-0.016918
12.301,63.1230,-0.024169
12.316,63.3078,-0.027794
12.332,63.4926,-0.027794
12.349,63.7049,-0.030211
12.365,63.8922,-0.031420
12.383,64.0491,0.001208
12.406,64.0499,-0.035045
12.422,64.0499,-0.045921
12.438,64.0499,-0.029003
12.454,64.0499,-0.030211
12.471,64.0499,-0.039879
12.487,64.0499,-0.038670
12.502,64.0499,-0.042296
12.517,64.0499,-0.031420
12.536,64.0499,-0.031420
12.550,64.0499,-0.031420
12.567,64.0499,-0.033837
12.582,64.0499,-0.026586
12.598,64.0499,-0.027794
12.615,64.0499,-0.024169
12.629,64.0499,-0.024169
12.646,64.0499,-0.025377
12.662,64.0499,-0.035045
12.678,64.0499,-0.031420
12.693,64.0499,-0.025377
12.709,64.0499,-0.022961
12.726,64.0499,-0.022961
12.742,64.0499,-0.024169
12.757,64.0499,-0.030211
12.776,64.0499,-0.027794
12.794,64.0499,-0.019335
12.806,64.0499,-0.019335
12.822,64.0499,-0.021752
12.839,64.0499,-0.021752
12.854,64.0499,-0.016918
12.871,64.0499,-0.020544
12.885,64.0499,-0.026586
12.902,64.0499,-0.025377
12.919,64.0499,-0.020544
12.934,64.0499,-0.016918
12.949,64.0499,-0.027794
12.977,64.0499,-0.030211
12.993,64.0499,-0.022961
13.008,64.0499,-0.016918
13.024,64.0499,-0.025377
13.040,64.0499,-0.019335
13.057,64.0499,-0.020544
13.073,64.0499,-0.016918
13.088,64.0499,-0.024169
13.104,64.0499,-0.015710
13.121,64.0499,-0.018127
13.136,64.0499,-0.020544
13.154,64.0499,-0.020544
13.170,64.0499,-0.022961
13.187,64.0499,-0.016918
13.200,64.0499,-0.020544
13.216,64.0499,-0.019335
13.233,64.0499,-0.022961
13.248,64.0499,-0.020544
13.264,64.0499,-0.020544
13.281,64.0499,-0.018127
13.297,64.0499,-0.018127
13.314,64.0499,-0.018127
13.328,64.0499,-0.025377
13.345,64.0499,-0.014501
13.360,64.0499,-0.021752
13.376,64.0499,-0.021752
13.394,64.0499,-0.018127
13.409,64.0499,-0.018127
13.424,64.0499,-0.018127
