Elapsed Time (s),Position (mm),Force (N)
-0.016,61.6001,-0.044713
0.001,61.6001,-0.044713
0.016,61.6001,-0.044713
0.033,61.6001,-0.039879
0.048,61.6001,-0.044713
0.065,61.6001,-0.043504
0.080,61.6001,-0.047129
0.097,61.6001,-0.039879
0.112,61.6001,-0.037462
0.133,61.6001,-0.041087
0.144,61.6001,-0.039879
0.161,61.6001,-0.042296
0.176,61.6001,-0.045921
0.193,61.6001,-0.038670
0.208,61.6001,-0.037462
0.224,61.6001,-0.044713
0.240,61.6001,-0.042296
0.257,61.6001,-0.037462
0.272,61.6001,-0.037462
0.288,61.6001,-0.036253
0.317,61.6001,-0.039879
0.333,61.6001,-0.037462
0.351,61.6001,-0.041087
0.365,61.6001,-0.038670
0.381,61.6001,-0.037462
0.398,61.6001,-0.033837
0.415,61.6001,-0.038670
0.429,61.6001,-0.038670
0.446,61.6001,-0.036253
0.461,61.6001,-0.042296
0.479,61.6001,-0.032628
0.493,61.6001,-0.032628
0.509,61.6001,-0.035045
0.525,61.6001,-0.035045
0.541,61.6001,-0.037462
0.557,61.6001,-0.043504
0.573,61.6001,-0.041087
0.589,61.6001,-0.033837
0.605,61.6001,-0.031420
0.628,61.6001,-0.038670
0.652,61.6001,-0.035045
0.669,61.6001,-0.038670
0.686,61.6001,-0.038670
0.701,61.6001,-0.036253
0.717,61.6001,-0.036253
0.733,61.6001,-0.036253
0.751,61.6001,-0.036253
0.765,61.6001,-0.035045
0.782,61.6001,-0.032628
0.797,61.6001,-0.038670
0.813,61.6001,-0.036253
0.829,61.6001,-0.033837
0.845,61.6001,-0.031420
0.872,61.6001,-0.030211
0.888,61.6001,-0.027794
0.904,61.6001,-0.036253
0.920,61.6001,-0.037462
0.936,61.6001,-0.038670
0.952,61.6001,-0.036253
0.970,61.6001,-0.031420
0.984,61.6001,-0.032628
1.001,61.6001,-0.032628
1.016,61.6001,-0.032628
1.032,61.6001,-0.038670
1.048,61.6001,-0.036253
1.064,61.6001,-0.038670
1.080,61.6001,-0.032628
1.096,61.6001,-0.032628
1.112,61.6001,-0.033837
1.127,61.6001,-0.035045
1.144,61.6001,-0.035045
1.159,61.6001,-0.030211
1.177,61.6001,-0.030211
1.192,61.6001,-0.029003
1.208,61.6001,-0.030211
1.223,61.6001,-0.032628
1.240,61.6001,-0.032628
1.255,61.6001,-0.033837
1.271,61.6001,-0.032628
1.289,61.6001,-0.033837
1.304,61.6001,-0.037462
1.319,61.6001,-0.032628
1.336,61.6001,-0.033837
1.355,61.6001,-0.031420
1.367,61.6001,-0.035045
1.384,61.6001,-0.039879
1.399,61.6001,-0.031420
1.420,61.6001,-0.032628
1.436,61.6001,-0.026586
1.453,61.6001,-0.027794
1.468,61.6001,-0.032628
1.485,61.6001,-0.036253
1.501,61.6001,-0.030211
1.516,61.6001,-0.032628
1.532,61.6001,-0.035045
1.549,61.6001,-0.033837
1.564,61.6001,-0.033837
1.582,61.6001,-0.027794
1.598,61.6001,-0.024169
1.613,61.6001,-0.033837
1.628,61.6001,-0.035045
1.645,61.6001,-0.031420
1.661,61.6001,-0.037462
1.676,61.6001,-0.027794
1.693,61.6001,-0.027794
1.708,61.6001,-0.036253
1.724,61.6001,-0.036253
1.740,61.6001,-0.031420
1.757,61.6001,-0.033837
1.772,61.6001,-0.033837
1.788,61.6001,-0.032628
1.804,61.6001,-0.032628
1.820,61.6001,-0.027794
1.838,61.6001,-0.026586
1.852,61.6001,-0.031420
1.868,61.6001,-0.035045
1.884,61.6001,-0.035045
1.900,61.6001,-0.032628
1.916,61.6001,-0.027794
1.933,61.6001,-0.030211
1.948,61.6001,-0.026586
1.970,61.6001,-0.036253
1.986,61.6001,-0.036253
2.002,61.6001,-0.030211
2.018,61.6001,-0.033837
2.035,61.6001,-0.033837
2.050,61.6001,-0.029003
2.067,61.6001,-0.030211
2.082,61.6001,-0.033837
2.098,61.6001,-0.030211
2.114,61.6001,-0.030211
2.130,61.6001,-0.030211
2.146,61.6001,-0.031420
2.162,61.6001,-0.032628
2.178,61.6001,-0.029003
2.194,61.6001,-0.027794
2.214,61.6001,-0.031420
2.226,61.6001,-0.030211
2.242,61.6001,-0.032628
2.258,61.6001,-0.031420
2.275,61.6001,-0.036253
2.290,61.6001,-0.032628
2.306,61.6001,-0.026586
2.322,61.6001,-0.026586
2.339,61.6001,-0.030211
2.354,61.6001,-0.030211
2.370,61.6001,-0.033837
2.386,61.6001,-0.027794
2.407,61.6001,-0.027794
2.418,61.6001,-0.022961
2.434,61.6001,-0.022961
2.450,61.6001,-0.032628
2.466,61.6001,-0.032628
2.482,61.6001,-0.035045
2.498,61.6001,-0.032628
2.519,61.6001,-0.029003
2.535,61.6001,-0.030211
2.551,61.6001,-0.031420
2.567,61.6001,-0.026586
2.585,61.6001,-0.029003
2.599,61.6001,-0.030211
2.615,61.6001,-0.030211
2.631,61.6001,-0.024169
2.647,61.6001,-0.030211
2.663,61.6001,-0.030211
2.679,61.6001,-0.026586
2.695,61.6001,-0.032628
2.717,61.6001,-0.029003
2.728,61.6001,-0.032628
2.743,61.6001,-0.029003
2.759,61.6001,-0.029003
2.775,61.6001,-0.026586
2.791,61.6001,-0.024169
2.807,61.6001,-0.024169
2.824,61.6001,-0.025377
2.840,61.6001,-0.035045
2.855,61.6001,-0.035045
2.871,61.6001,-0.029003
2.889,61.6001,-0.026586
2.903,61.6001,-0.025377
2.919,61.6001,-0.030211
2.935,61.6001,-0.030211
2.952,61.6001,-0.030211
2.967,61.6001,-0.030211
2.983,61.6001,-0.029003
2.999,61.6001,-0.024169
3.016,61.6001,-0.029003
3.031,61.6001,-0.022961
3.049,61.6001,-0.026586
3.072,61.6001,-0.031420
3.088,61.6001,-0.029003
3.105,61.6001,-0.031420
3.120,61.6001,-0.030211
3.136,61.6001,-0.030211
3.153,61.6001,-0.030211
3.168,61.6001,-0.029003
3.185,61.6001,-0.029003
3.201,61.6001,-0.026586
3.217,61.6001,-0.026586
3.234,61.6001,-0.026586
3.248,61.6001,-0.030211
3.264,61.6001,-0.030211
3.280,61.6001,-0.026586
3.296,61.6001,-0.026586
3.312,61.6001,-0.035045
3.328,61.6001,-0.029003
3.344,61.6001,-0.025377
3.360,61.6001,-0.021752
3.378,61.6001,-0.022961
3.392,61.6001,-0.022961
3.408,61.6001,-0.026586
3.425,61.6001,-0.024169
3.441,61.6001,-0.030211
3.457,61.6001,-0.025377
3.473,61.6001,-0.025377
3.489,61.6001,-0.025377
3.510,61.6001,-0.029003
3.529,61.6001,-0.026586
3.544,61.6001,-0.027794
3.560,61.6001,-0.025377
3.575,61.6001,-0.029003
3.590,61.6001,-0.030211
3.606,61.6001,-0.026586
3.626,61.6001,-0.029003
3.642,61.6001,-0.032628
3.658,61.6001,-0.031420
3.674,61.6001,-0.026586
3.693,61.6001,-0.027794
3.707,61.6001,-0.030211
3.723,61.6001,-0.029003
3.738,61.6001,-0.026586
3.755,61.6001,-0.026586
3.770,61.6001,-0.024169
3.786,61.6001,-0.031420
3.802,61.6001,-0.026586
3.818,61.6001,-0.027794
3.834,61.6001,-0.025377
3.850,61.6001,-0.025377
3.867,61.6001,-0.025377
3.883,61.6001,-0.031420
3.899,61.6001,-0.032628
3.914,61.6001,-0.025377
3.933,61.6001,-0.031420
3.946,61.6001,-0.029003
3.963,61.6001,-0.029003
3.978,61.6001,-0.022961
3.997,61.6001,-0.022961
4.010,61.6001,-0.025377
4.026,61.6001,-0.030211
4.042,61.6001,-0.031420
4.060,61.6001,-0.027794
4.075,61.6001,-0.027794
4.090,61.6001,-0.032628
4.106,61.6001,-0.032628
4.122,61.6001,-0.032628
4.138,61.6001,-0.026586
4.154,61.6001,-0.030211
4.183,61.6001,-0.030211
4.199,61.6001,-0.027794
4.215,61.6001,-0.027794
4.231,61.6001,-0.025377
4.248,61.6001,-0.027794
4.263,61.6001,-0.027794
4.279,61.6001,-0.026586
4.299,61.6001,-0.026586
4.311,61.6001,-0.030211
4.327,61.6001,-0.024169
4.343,61.6001,-0.024169
4.359,61.6001,-0.030211
4.379,61.6001,-0.035045
4.391,61.6001,-0.031420
4.407,61.6001,-0.027794
4.424,61.6001,-0.027794
4.439,61.6001,-0.026586
4.455,61.6001,-0.022961
4.471,61.6001,-0.022961
4.488,61.6001,-0.025377
4.503,61.6001,-0.022961
4.519,61.6001,-0.026586
4.535,61.6001,-0.026586
4.552,61.6001,-0.021752
4.567,61.6001,-0.025377
4.583,61.6001,-0.025377
4.599,61.6001,-0.026586
4.615,61.6001,-0.030211
4.631,61.6001,-0.030211
4.647,61.6001,-0.027794
4.663,61.6001,-0.027794
4.680,61.6001,-0.026586
4.696,61.6001,-0.022961
4.713,61.6001,-0.031420
4.737,61.6001,-0.031420
4.753,61.6001,-0.025377
4.769,61.6001,-0.025377
4.785,61.6001,-0.022961
4.801,61.6001,-0.027794
4.817,61.6001,-0.022961
4.835,61.6001,-0.022961
4.849,61.6001,-0.024169
4.865,61.6001,-0.027794
4.881,61.6001,-0.026586
4.897,61.6001,-0.022961
4.913,61.6001,-0.022961
4.929,61.6001,-0.026586
4.945,61.6001,-0.027794
4.960,61.6001,-0.025377
4.984,61.6001,-0.026586
5.007,61.6001,-0.024169
5.027,61.6001,-0.027794
5.041,61.6001,-0.026586
5.057,61.6001,-0.030211
5.073,61.6001,-0.024169
5.089,61.6001,-0.026586
5.106,61.6001,-0.030211
5.121,61.6001,-0.032628
5.137,61.6001,-0.029003
5.153,61.6001,-0.027794
5.169,61.6001,-0.024169
5.185,61.6001,-0.021752
5.201,61.6001,-0.029003
5.217,61.6001,-0.029003
5.234,61.6001,-0.029003
5.249,61.6001,-0.024169
5.266,61.6001,-0.026586
5.290,61.6001,-0.022961
5.312,61.6001,-0.026586
5.330,61.6001,-0.027794
5.346,61.6001,-0.029003
5.362,61.6001,-0.025377
5.377,61.6001,-0.026586
5.393,61.6001,-0.025377
5.408,61.6001,-0.029003
5.419,61.6001,-0.026586
5.434,61.6001,-0.019335
5.451,61.6001,-0.026586
5.465,61.6001,-0.025377
5.482,61.6001,-0.025377
5.497,61.6001,-0.027794
5.513,61.6001,-0.027794
5.529,61.6001,-0.027794
5.545,61.6001,-0.020544
5.561,61.6001,-0.025377
5.577,61.6001,-0.026586
5.595,61.6001,-0.024169
5.609,61.6001,-0.026586
5.625,61.6001,-0.025377
5.641,61.6001,-0.018127
5.660,61.6001,-0.016918
5.673,61.6001,-0.022961
5.694,61.6001,-0.025377
5.705,61.6001,-0.024169
5.722,61.6001,-0.029003
5.739,61.6001,-0.029003
5.753,61.6001,-0.024169
5.769,61.6001,-0.022961
5.786,61.6001,-0.025377
5.802,61.6001,-0.024169
5.818,61.6001,-0.029003
5.845,61.6001,-0.026586
5.861,61.6001,-0.021752
5.877,61.6001,-0.022961
5.893,61.6001,-0.022961
5.912,61.6001,-0.025377
5.925,61.6001,-0.025377
5.942,61.6001,-0.027794
5.958,61.6001,-0.022961
5.974,61.6001,-0.020544
5.989,61.6001,-0.026586
6.007,61.6001,-0.026586
6.021,61.6001,-0.022961
6.038,61.6001,-0.029003
6.053,61.6001,-0.029003
6.070,61.6001,-0.019335
6.085,61.6001,-0.024169
6.101,61.6001,-0.021752
6.118,61.6001,-0.027794
6.133,61.6001,-0.021752
6.149,61.6001,-0.027794
6.165,61.6001,-0.027794
6.181,61.6001,-0.024169
6.197,61.6001,-0.024169
6.220,61.6001,-0.024169
6.230,61.6001,-0.025377
6.245,61.6001,-0.026586
6.261,61.6001,-0.025377
6.278,61.6001,-0.029003
6.295,61.6001,-0.026586
6.309,61.6001,-0.026586
6.325,61.6001,-0.019335
6.341,61.6001,-0.019335
6.357,61.6001,-0.022961
6.374,61.6001,-0.033837
6.403,61.6001,-0.033837
6.425,61.6001,-0.029003
6.447,61.6001,-0.021752
6.466,61.6001,-0.020544
6.482,61.6001,-0.027794
6.498,61.6001,-0.022961
6.514,61.6001,-0.027794
6.531,61.6001,-0.027794
6.547,61.6001,-0.026586
6.562,61.6001,-0.019335
6.578,61.6001,-0.026586
6.595,61.6001,-0.026586
6.610,61.6001,-0.026586
6.627,61.6001,-0.029003
6.642,61.6001,-0.027794
6.659,61.6001,-0.025377
6.675,61.6001,-0.025377
6.690,61.6001,-0.026586
6.707,61.6001,-0.025377
6.722,61.6001,-0.027794
6.738,61.6001,-0.025377
6.754,61.6001,-0.027794
6.773,61.6001,-0.029003
6.786,61.6001,-0.025377
6.802,61.6001,-0.024169
6.819,61.6001,-0.018127
6.834,61.6001,-0.018127
6.849,61.6001,-0.027794
6.866,61.6001,-0.025377
6.882,61.6001,-0.026586
6.898,61.6001,-0.022961
6.914,61.6001,-0.021752
6.930,61.6001,-0.021752
6.959,61.6001,-0.022961
6.975,61.6001,-0.027794
6.991,61.6001,-0.031420
7.007,61.6001,-0.027794
7.023,61.6001,-0.029003
7.040,61.6001,-0.024169
7.055,61.6001,-0.020544
7.071,61.6001,-0.018127
7.088,61.6001,-0.025377
7.103,61.6001,-0.025377
7.119,61.6001,-0.026586
7.135,61.6001,-0.024169
7.151,61.6001,-0.020544
7.167,61.6001,-0.012084
7.183,61.6001,-0.020544
7.199,61.6001,-0.025377
7.215,61.6001,-0.021752
7.231,61.6001,-0.022961
7.247,61.6001,-0.024169
7.266,61.6001,-0.024169
7.278,61.6001,-0.029003
7.294,61.6001,-0.021752
7.311,61.6001,-0.025377
7.327,61.6001,-0.021752
7.343,61.6001,-0.022961
7.360,61.6001,-0.029003
7.375,61.6001,-0.025377
7.392,61.6001,-0.026586
7.407,61.6001,-0.022961
7.424,61.6001,-0.024169
7.438,61.6001,-0.025377
7.455,61.6001,-0.025377
7.471,61.6001,-0.030211
7.488,61.6001,-0.025377
7.512,61.6001,-0.022961
7.527,61.6001,-0.024169
7.543,61.6001,-0.025377
7.560,61.6001,-0.027794
7.576,61.6001,-0.027794
7.592,61.6001,-0.025377
7.609,61.6001,-0.026586
7.623,61.6001,-0.024169
7.640,61.6001,-0.019335
7.655,61.6001,-0.019335
7.672,61.6001,-0.024169
7.688,61.6001,-0.026586
7.703,61.6001,-0.026586
7.719,61.6001,-0.029003
7.735,61.6001,-0.029003
7.751,61.6001,-0.021752
7.767,61.6001,-0.021752
7.783,61.6001,-0.020544
7.799,61.6001,-0.026586
7.817,61.6001,-0.026586
7.832,61.6001,-0.024169
7.847,61.6001,-0.026586
7.863,61.6001,-0.022961
7.880,61.6001,-0.019335
7.895,61.6001,-0.016918
7.911,61.6001,-0.019335
7.927,61.6001,-0.021752
7.945,61.6001,-0.025377
7.960,61.6001,-0.030211
7.976,61.6001,-0.026586
7.991,61.6001,-0.027794
8.008,61.6001,-0.022961
8.024,61.6001,-0.024169
8.042,61.6001,-0.024169
8.065,61.6001,-0.025377
8.081,61.6001,-0.020544
8.097,61.6001,-0.020544
8.113,61.6001,-0.021752
8.130,61.6001,-0.019335
8.145,61.6001,-0.022961
8.164,61.6001,-0.027794
8.178,61.6001,-0.026586
8.196,61.6001,-0.026586
8.210,61.6001,-0.019335
8.226,61.6001,-0.021752
8.241,61.6001,-0.030211
8.257,61.6001,-0.026586
8.274,61.6001,-0.027794
8.289,61.6001,-0.027794
8.305,61.6001,-0.022961
8.321,61.6001,-0.032628
8.337,61.6001,-0.020544
8.353,61.6001,-0.021752
8.375,61.6001,-0.020544
8.386,61.6001,-0.027794
8.402,61.6001,-0.032628
8.422,61.6001,-0.029003
8.433,61.6001,-0.026586
8.450,61.6001,-0.026586
8.465,61.6001,-0.022961
8.481,61.6001,-0.021752
8.497,61.6001,-0.025377
8.514,61.6001,-0.022961
8.529,61.6001,-0.025377
8.545,61.6001,-0.025377
8.561,61.6001,-0.022961
8.577,61.6001,-0.022961
8.593,61.6001,-0.019335
8.620,61.6001,-0.019335
8.635,61.6001,-0.025377
8.651,61.6001,-0.024169
8.667,61.6001,-0.022961
8.683,61.6001,-0.022961
8.699,61.6001,-0.014501
8.717,61.6001,-0.026586
8.731,61.6001,-0.026586
8.748,61.6001,-0.027794
8.764,61.6001,-0.027794
8.782,61.6001,-0.026586
8.795,61.6001,-0.030211
8.811,61.6001,-0.018127
8.827,61.6001,-0.020544
8.843,61.6001,-0.020544
8.859,61.6001,-0.024169
8.879,61.6001,-0.022961
8.891,61.6001,-0.027794
8.907,61.6001,-0.030211
8.923,61.6001,-0.026586
8.939,61.6001,-0.022961
8.955,61.6001,-0.019335
8.971,61.6001,-0.027794
8.987,61.6001,-0.019335
9.003,61.6001,-0.026586
9.020,61.6001,-0.022961
9.035,61.6001,-0.025377
9.052,61.6001,-0.019335
9.067,61.6001,-0.016918
9.083,61.6001,-0.020544
9.099,61.6001,-0.020544
9.118,61.6001,-0.022961
9.132,61.6001,-0.022961
9.147,61.6001,-0.022961
9.164,61.6001,-0.024169
9.188,61.6001,-0.020544
9.203,61.6001,-0.016918
9.219,61.6001,-0.021752
9.235,61.6001,-0.026586
9.257,61.6001,-0.021752
9.267,61.6001,-0.025377
9.283,61.6001,-0.022961
9.300,61.6001,-0.025377
9.316,61.6001,-0.025377
9.331,61.6001,-0.025377
9.347,61.6001,-0.031420
9.363,61.6001,-0.030211
9.380,61.6001,-0.022961
9.395,61.6001,-0.025377
9.413,61.6001,-0.025377
9.427,61.6001,-0.027794
9.443,61.6001,-0.027794
9.459,61.6001,-0.026586
9.475,61.6001,-0.026586
9.491,61.6001,-0.026586
9.507,61.6001,-0.020544
9.523,61.6001,-0.021752
9.539,61.6001,-0.021752
9.557,61.6001,-0.019335
9.571,61.6001,-0.029003
9.587,61.6001,-0.024169
9.603,61.6001,-0.024169
9.619,61.6001,-0.025377
9.635,61.6001,-0.025377
9.652,61.6001,-0.020544
9.666,61.6001,-0.029003
9.683,61.6001,-0.029003
9.698,61.6001,-0.027794
9.715,61.6001,-0.022961
9.740,61.6001,-0.027794
9.754,61.6001,-0.020544
9.770,61.6001,-0.021752
9.787,61.6001,-0.019335
9.803,61.6001,-0.024169
9.819,61.6001,-0.022961
9.834,61.6001,-0.024169
9.851,61.6001,-0.019335
9.871,61.6001,-0.016918
9.884,61.6001,-0.022961
9.898,61.6001,-0.029003
9.914,61.6001,-0.025377
9.932,61.6001,-0.027794
9.947,61.6001,-0.018127
9.963,61.6001,-0.021752
9.978,61.6001,-0.020544
9.997,61.6001,-0.020544
10.011,61.6001,-0.018127
10.028,61.6001,-0.025377
10.042,61.6001,-0.022961
10.058,61.6001,-0.025377
10.075,61.6001,-0.029003
10.091,61.6001,-0.022961
10.106,61.6001,-0.024169
10.122,61.6001,-0.024169
10.139,61.6001,-0.021752
10.154,61.6001,-0.027794
10.172,61.6001,-0.026586
10.186,61.6001,-0.024169
10.202,61.6001,-0.020544
10.218,61.6001,-0.019335
10.239,61.6001,-0.019335
10.263,61.6001,-0.019335
10.279,61.6001,-0.027794
10.295,61.6001,-0.020544
10.310,61.6001,-0.024169
10.327,61.6001,-0.016918
10.343,61.6001,-0.016918
10.358,61.6001,-0.018127
10.374,61.6001,-0.019335
10.391,61.6001,-0.025377
10.407,61.6001,-0.020544
10.423,61.6001,-0.019335
10.438,61.6001,-0.022961
10.457,61.6001,-0.022961
10.471,61.6001,-0.018127
10.486,61.6001,-0.021752
10.502,61.6001,-0.025377
10.519,61.6001,-0.022961
10.535,61.6001,-0.020544
10.551,61.6001,-0.014501
10.567,61.6001,-0.018127
10.583,61.6001,-0.026586
10.598,61.6001,-0.025377
10.614,61.6001,-0.025377
10.630,61.6001,-0.024169
10.646,61.6001,-0.020544
10.663,61.6001,-0.021752
10.678,61.6001,-0.016918
10.694,61.6001,-0.019335
10.711,61.6001,-0.024169
10.727,61.6001,-0.024169
10.742,61.6001,-0.030211
10.758,61.6001,-0.026586
10.774,61.6001,-0.026586
10.790,61.6001,-0.022961
10.811,61.6001,-0.016918
10.828,61.6001,-0.022961
10.843,61.6001,-0.018127
10.859,61.6001,-0.022961
10.876,61.6001,-0.022961
10.892,61.6001,-0.029003
10.908,61.6001,-0.016918
10.923,61.6001,-0.020544
10.940,61.6001,-0.026586
10.955,61.6001,-0.026586
10.971,61.6001,-0.021752
10.987,61.6001,-0.024169
11.003,61.6001,-0.022961
11.019,61.6001,-0.022961
11.034,61.6001,-0.020544
11.054,61.6001,-0.025377
11.067,61.6001,-0.029003
11.083,61.6001,-0.025377
11.099,61.6001,-0.016918
11.115,61.5707,-0.014501
11.132,61.5177,0.025377
11.148,61.4614,0.001208
11.163,61.4148,0.010876
11.181,61.3595,0.012084
11.195,61.3133,0.020544
11.211,61.2606,0.027794
11.226,61.2092,0.048338
11.244,61.1526,0.048338
11.260,61.0998,0.054380
11.275,61.0504,0.065256
11.291,61.0009,0.071298
11.307,60.9482,0.082174
11.323,60.8945,0.082174
11.339,60.8428,0.102718
11.361,60.7705,0.114803
11.377,60.7191,0.118428
11.393,60.6671,0.118428
11.409,60.6172,0.129304
11.426,60.5603,0.129304
11.443,60.5020,0.142597
11.459,60.4503,0.161932
11.473,60.4060,0.164349
11.490,60.3536,0.174016
11.506,60.3003,0.180059
11.521,60.2524,0.195769
11.537,60.1991,0.196977
11.553,60.1460,0.205436
11.569,60.0965,0.215104
11.586,60.0383,0.215104
11.601,59.9924,0.213895
11.617,59.9390,0.205436
11.633,59.8886,0.204228
11.650,59.8306,0.201811
11.665,59.7835,0.192143
11.681,59.7318,0.175225
11.697,59.6803,0.151056
11.713,59.6270,0.138971
11.729,59.5727,0.116011
11.745,59.5224,0.100301
11.762,59.4679,0.064048
11.777,59.4180,0.008459
11.793,59.3657,0.008459
11.809,59.3136,0.004834
11.826,59.2593,0.004834
11.841,59.2094,0.007251
11.859,59.1521,0.007251
11.883,59.0715,0.007251
11.898,59.0226,0.002417
11.915,58.9709,-0.001208
11.930,58.9192,-0.003625
11.947,58.8657,0.006042
11.963,58.8128,0.004834
11.979,58.7597,0.007251
11.995,58.7086,0.006042
12.015,58.6416,0.006042
12.027,58.6058,0.001208
12.043,58.5531,-0.003625
12.058,58.5030,0.008459
12.075,58.4483,0.008459
12.091,58.3958,0.001208
12.107,58.3455,-0.003625
12.122,58.2928,-0.003625
12.139,58.2403,0.001208
12.154,58.1906,0.001208
12.170,58.1385,0.002417
12.187,58.0835,0.002417
12.203,58.0301,0.004834
12.221,57.9695,0.001208
12.237,57.9208,0.003625
12.250,57.8784,0.004834
12.266,57.8261,-0.001208
12.282,57.7743,0.003625
12.304,57.7040,0.012084
12.315,57.6653,0.003625
12.331,57.6145,0.003625
12.349,57.5549,0.006042
12.363,57.5100,0.003625
12.379,57.4583,0.004834
12.396,57.4030,0.004834
12.420,57.3236,0.003625
12.435,57.2764,0.003625
12.451,57.2221,0.000000
12.467,57.1723,0.002417
12.484,57.1166,0.002417
12.502,57.0555,0.006042
12.515,57.0161,0.006042
12.531,56.9640,0.003625
12.548,56.9087,0.001208
12.563,56.8595,-0.001208
12.580,56.8048,0.001208
12.597,56.7495,0.002417
12.612,56.7000,0.002417
12.628,56.6487,0.006042
12.643,56.5998,0.002417
12.659,56.5451,0.000000
12.675,56.4960,0.000000
12.691,56.4439,0.001208
12.707,56.3916,0.004834
12.724,56.3385,0.000000
12.740,56.2862,0.002417
12.755,56.2357,0.002417
12.775,56.1706,0.001208
12.787,56.1313,-0.002417
12.803,56.0796,0.000000
12.819,56.0275,-0.001208
12.836,55.9731,0.003625
12.851,55.9220,0.004834
12.868,55.8700,0.002417
12.883,55.8172,0.004834
12.899,55.7664,0.002417
12.915,55.7153,0.003625
12.946,55.6138,0.009668
12.964,55.5538,0.007251
12.977,55.5501,-0.033837
12.993,55.5501,0.003625
13.009,55.5501,0.002417
13.025,55.5501,-0.003625
13.041,55.5501,0.001208
13.057,55.5501,0.008459
13.074,55.5501,0.008459
13.089,55.5501,0.002417
13.105,55.5501,0.007251
13.121,55.5501,0.003625
13.139,55.5501,0.000000
13.153,55.5501,0.003625
13.169,55.5501,0.004834
13.185,55.5501,0.006042
13.201,55.5501,0.000000
13.217,55.5501,-0.001208
13.233,55.5501,-0.001208
13.249,55.5501,0.002417
13.265,55.5501,0.003625
13.281,55.5501,-0.001208
13.297,55.5501,0.003625
13.320,55.5501,0.002417
13.333,55.5501,0.003625
13.345,55.5501,0.003625
13.361,55.5501,0.000000
13.377,55.5501,-0.001208
13.395,55.5501,-0.004834
13.410,55.5501,-0.003625
13.425,55.5501,-0.004834
13.443,55.5501,0.001208
13.457,55.5501,-0.002417
13.473,55.5501,-0.002417
